#Masse - Plot 0	Amplitude (V) - Plot 0	scangeschw.: 10 s/amu druck: 1.0 E -5 ausgangsdruck 1.0 E -5 mbar
0,105992	-0,0376526	
0,105992	-0,0376526	
0,135976	-0,0584925	
0,135976	-0,0584925	
0,165464	-0,101703	
0,165464	-0,101703	
0,195438	-0,161564	
0,195438	-0,161564	
0,225239	-0,140601	
0,225239	-0,140601	
0,254023	-0,127607	
0,254023	-0,127607	
0,284711	-0,091431	
0,284711	-0,091431	
0,314203	-0,0829925	
0,314203	-0,0829925	
0,344418	-0,175787	
0,344418	-0,175787	
0,373938	-0,128803	
0,373938	-0,128803	
0,403502	-0,101252	
0,403502	-0,101252	
0,433215	-0,167161	
0,433215	-0,167161	
0,463182	-0,15929	
0,463182	-0,15929	
0,49255	-0,119587	
0,49255	-0,119587	
0,521989	-0,0991465	
0,521989	-0,0991465	
0,551933	-0,0750578	
0,551933	-0,0750578	
0,581725	-0,178589	
0,581725	-0,178589	
0,611004	-0,226102	
0,611004	-0,226102	
0,640906	-0,345232	
0,640906	-0,345232	
0,670646	-0,374862	
0,670646	-0,374862	
0,700378	-0,168861	
0,700378	-0,168861	
0,729573	-0,145343	
0,729573	-0,145343	
0,759306	-0,145726	
0,759306	-0,145726	
0,788797	-0,102685	
0,788797	-0,102685	
0,81822	-0,0695909	
0,81822	-0,0695909	
0,848321	-0,037844	
0,848321	-0,037844	
0,877897	-0,0172764	
0,877897	-0,0172764	
0,907793	0,04915	
0,907793	0,04915	
0,937548	0,0368949	
0,937548	0,0368949	
0,966896	0,0242946	
0,966896	0,0242946	
0,996515	0,0868838	
0,996515	0,0868838	
1,02626	0,0588931	
1,02626	0,0588931	
1,05609	-0,106125	
1,05609	-0,106125	
1,08561	-0,0558842	
1,08561	-0,0558842	
1,11553	-0,0949488	
1,11553	-0,0949488	
1,14466	-0,179597	
1,14466	-0,179597	
1,17448	-0,217815	
1,17448	-0,217815	
1,20411	-0,216682	
1,20411	-0,216682	
1,23385	-0,0923743	
1,23385	-0,0923743	
1,26387	-0,0946569	
1,26387	-0,0946569	
1,29257	-0,187166	
1,29257	-0,187166	
1,3231	-0,148107	
1,3231	-0,148107	
1,35193	-0,00988885	
1,35193	-0,00988885	
1,38205	-0,0930699	
1,38205	-0,0930699	
1,41127	0,0133912	
1,41127	0,0133912	
1,44127	-0,0336632	
1,44127	-0,0336632	
1,47095	0,0262439	
1,47095	0,0262439	
1,50083	-0,0355819	
1,50083	-0,0355819	
1,53032	-0,000127418	
1,53032	-0,000127418	
1,55956	0,0359904	
1,55956	0,0359904	
1,58918	0,0446966	
1,58918	0,0446966	
1,61958	0,00130443	
1,61958	0,00130443	
1,64849	-0,0153254	
1,64849	-0,0153254	
1,67839	0,0183846	
1,67839	0,0183846	
1,70782	-0,0200126	
1,70782	-0,0200126	
1,73785	-0,0302504	
1,73785	-0,0302504	
1,76724	-0,0255874	
1,76724	-0,0255874	
1,79668	-0,0537284	
1,79668	-0,0537284	
1,8269	0,0107124	
1,8269	0,0107124	
1,85653	-0,0168469	
1,85653	-0,0168469	
1,88607	-0,059567	
1,88607	-0,059567	
1,91602	-0,0484787	
1,91602	-0,0484787	
1,9449	-0,0243887	
1,9449	-0,0243887	
1,97456	-0,00663515	
1,97456	-0,00663515	
2,00448	-0,00264938	
2,00448	-0,00264938	
2,0335	-0,0273323	
2,0335	-0,0273323	
2,06384	-0,0316285	
2,06384	-0,0316285	
2,09338	-0,0179993	
2,09338	-0,0179993	
2,12265	0,0125346	
2,12265	0,0125346	
2,15149	0,00994706	
2,15149	0,00994706	
2,18201	0,000491496	
2,18201	0,000491496	
2,21158	0,039909	
2,21158	0,039909	
2,2412	0,00515585	
2,2412	0,00515585	
2,27099	0,0512835	
2,27099	0,0512835	
2,3001	0,0925206	
2,3001	0,0925206	
2,33054	0,0876922	
2,33054	0,0876922	
2,35999	0,166473	
2,35999	0,166473	
2,3893	0,222974	
2,3893	0,222974	
2,41916	0,223061	
2,41916	0,223061	
2,4483	0,229257	
2,4483	0,229257	
2,47798	0,255094	
2,47798	0,255094	
2,50788	0,179183	
2,50788	0,179183	
2,53727	0,0803533	
2,53727	0,0803533	
2,56697	0,0137982	
2,56697	0,0137982	
2,59719	-0,039719	
2,59719	-0,039719	
2,62556	-0,00389014	
2,62556	-0,00389014	
2,65661	-0,0448353	
2,65661	-0,0448353	
2,68573	-0,0192107	
2,68573	-0,0192107	
2,71555	-0,0117466	
2,71555	-0,0117466	
2,74517	-0,0296038	
2,74517	-0,0296038	
2,77493	-0,0377618	
2,77493	-0,0377618	
2,80394	-0,0318518	
2,80394	-0,0318518	
2,83342	0,000993997	
2,83342	0,000993997	
2,86341	-0,0430725	
2,86341	-0,0430725	
2,89313	-0,0162257	
2,89313	-0,0162257	
2,92227	-0,00392047	
2,92227	-0,00392047	
2,9523	-0,00169362	
2,9523	-0,00169362	
2,98221	-0,0389146	
2,98221	-0,0389146	
3,01184	-0,0173752	
3,01184	-0,0173752	
3,04129	0,00139313	
3,04129	0,00139313	
3,07143	-0,0302824	
3,07143	-0,0302824	
3,10095	-0,0366417	
3,10095	-0,0366417	
3,13009	-0,0171678	
3,13009	-0,0171678	
3,16025	-0,043844	
3,16025	-0,043844	
3,18934	0,00369922	
3,18934	0,00369922	
3,21918	-0,0186635	
3,21918	-0,0186635	
3,24905	-0,0246495	
3,24905	-0,0246495	
3,27856	-0,00931526	
3,27856	-0,00931526	
3,30824	-0,0213466	
3,30824	-0,0213466	
3,33772	-0,0104944	
3,33772	-0,0104944	
3,36755	-0,0296357	
3,36755	-0,0296357	
3,39668	-0,00268786	
3,39668	-0,00268786	
3,42708	-0,0116895	
3,42708	-0,0116895	
3,4566	-0,0298213	
3,4566	-0,0298213	
3,48652	-0,0034196	
3,48652	-0,0034196	
3,51555	0,00815847	
3,51555	0,00815847	
3,54536	-0,0273505	
3,54536	-0,0273505	
3,57456	-0,00419895	
3,57456	-0,00419895	
3,60476	-0,0384394	
3,60476	-0,0384394	
3,63433	0,0113871	
3,63433	0,0113871	
3,66391	0,0163074	
3,66391	0,0163074	
3,69359	0,0245395	
3,69359	0,0245395	
3,72318	-0,0375802	
3,72318	-0,0375802	
3,75256	-0,104282	
3,75256	-0,104282	
3,7822	-0,0539045	
3,7822	-0,0539045	
3,81158	-0,022738	
3,81158	-0,022738	
3,8412	-0,00125666	
3,8412	-0,00125666	
3,87061	-0,018659	
3,87061	-0,018659	
3,90086	-0,012508	
3,90086	-0,012508	
3,93042	-0,0117479	
3,93042	-0,0117479	
3,95947	-0,00426677	
3,95947	-0,00426677	
3,98963	-0,0214656	
3,98963	-0,0214656	
4,01932	-0,0138228	
4,01932	-0,0138228	
4,04873	0,00232248	
4,04873	0,00232248	
4,07852	-0,0385911	
4,07852	-0,0385911	
4,10745	-0,0172304	
4,10745	-0,0172304	
4,13718	0,00171302	
4,13718	0,00171302	
4,1676	-0,00237481	
4,1676	-0,00237481	
4,19674	-0,0275762	
4,19674	-0,0275762	
4,22655	-0,0124444	
4,22655	-0,0124444	
4,25603	-0,0167784	
4,25603	-0,0167784	
4,28578	-0,0236047	
4,28578	-0,0236047	
4,31531	-0,0496719	
4,31531	-0,0496719	
4,3449	-0,0443619	
4,3449	-0,0443619	
4,37435	-0,00024644	
4,37435	-0,00024644	
4,40412	0,00142019	
4,40412	0,00142019	
4,43367	-0,0177994	
4,43367	-0,0177994	
4,46342	-0,012297	
4,46342	-0,012297	
4,49224	-0,011368	
4,49224	-0,011368	
4,5223	-0,0104272	
4,5223	-0,0104272	
4,55218	-0,0309104	
4,55218	-0,0309104	
4,58205	-0,00303482	
4,58205	-0,00303482	
4,61145	-0,0237975	
4,61145	-0,0237975	
4,64142	-0,0112167	
4,64142	-0,0112167	
4,67072	-0,00305047	
4,67072	-0,00305047	
4,6997	-0,00597123	
4,6997	-0,00597123	
4,72993	0,0128284	
4,72993	0,0128284	
4,75945	-0,00518569	
4,75945	-0,00518569	
4,78879	0,0167264	
4,78879	0,0167264	
4,81875	-0,0422785	
4,81875	-0,0422785	
4,84806	-0,0180035	
4,84806	-0,0180035	
4,87803	-0,00981744	
4,87803	-0,00981744	
4,90709	-0,0216313	
4,90709	-0,0216313	
4,93736	-0,0440638	
4,93736	-0,0440638	
4,96683	0,015546	
4,96683	0,015546	
4,99565	-0,00436493	
4,99565	-0,00436493	
5,02584	-0,00572602	
5,02584	-0,00572602	
5,05555	-0,0128037	
5,05555	-0,0128037	
5,08543	-0,0185889	
5,08543	-0,0185889	
5,11463	-0,0145979	
5,11463	-0,0145979	
5,14416	-0,0487836	
5,14416	-0,0487836	
5,17403	-0,0444907	
5,17403	-0,0444907	
5,20403	0,0438638	
5,20403	0,0438638	
5,23313	-0,0069808	
5,23313	-0,0069808	
5,26315	-0,00179764	
5,26315	-0,00179764	
5,29247	-0,00819939	
5,29247	-0,00819939	
5,32249	0,00665031	
5,32249	0,00665031	
5,35137	0,0119965	
5,35137	0,0119965	
5,38091	-0,0183909	
5,38091	-0,0183909	
5,41096	-0,0330375	
5,41096	-0,0330375	
5,44046	0,00296715	
5,44046	0,00296715	
5,47039	-0,00439264	
5,47039	-0,00439264	
5,49948	-0,0118561	
5,49948	-0,0118561	
5,52878	-0,0219401	
5,52878	-0,0219401	
5,55885	-0,00498612	
5,55885	-0,00498612	
5,58821	-0,0323876	
5,58821	-0,0323876	
5,61801	-0,00646591	
5,61801	-0,00646591	
5,64769	-0,00363221	
5,64769	-0,00363221	
5,67806	-0,0072808	
5,67806	-0,0072808	
5,70705	-0,000397745	
5,70705	-0,000397745	
5,73646	-0,0425889	
5,73646	-0,0425889	
5,76572	-0,0389185	
5,76572	-0,0389185	
5,79509	0,00333302	
5,79509	0,00333302	
5,82503	0,0177252	
5,82503	0,0177252	
5,85478	-0,00591873	
5,85478	-0,00591873	
5,88449	-0,0168176	
5,88449	-0,0168176	
5,91361	-0,0114348	
5,91361	-0,0114348	
5,94337	-0,0102834	
5,94337	-0,0102834	
5,97353	-0,00459417	
5,97353	-0,00459417	
6,00268	0,0184439	
6,00268	0,0184439	
6,03259	-0,00393025	
6,03259	-0,00393025	
6,06207	-0,0277105	
6,06207	-0,0277105	
6,09199	-0,032611	
6,09199	-0,032611	
6,12128	-0,00758537	
6,12128	-0,00758537	
6,15082	-0,0156068	
6,15082	-0,0156068	
6,18039	0,000983236	
6,18039	0,000983236	
6,20972	-0,0315838	
6,20972	-0,0315838	
6,23916	0,00441726	
6,23916	0,00441726	
6,26972	-0,0176889	
6,26972	-0,0176889	
6,29952	0,000770627	
6,29952	0,000770627	
6,32859	-0,0173096	
6,32859	-0,0173096	
6,35842	-0,0217509	
6,35842	-0,0217509	
6,38789	-0,0357238	
6,38789	-0,0357238	
6,41737	-0,00597547	
6,41737	-0,00597547	
6,44732	0,0297552	
6,44732	0,0297552	
6,47692	-0,0374302	
6,47692	-0,0374302	
6,50604	-0,0162639	
6,50604	-0,0162639	
6,53632	-0,0249521	
6,53632	-0,0249521	
6,56604	-0,0214102	
6,56604	-0,0214102	
6,59516	-0,012193	
6,59516	-0,012193	
6,62472	-0,0144573	
6,62472	-0,0144573	
6,65425	-0,0235144	
6,65425	-0,0235144	
6,6839	0,0228213	
6,6839	0,0228213	
6,71376	-0,0248093	
6,71376	-0,0248093	
6,74336	-0,00931787	
6,74336	-0,00931787	
6,77323	-0,00733265	
6,77323	-0,00733265	
6,80251	0,0122665	
6,80251	0,0122665	
6,83221	-0,0129684	
6,83221	-0,0129684	
6,86188	-0,0163715	
6,86188	-0,0163715	
6,89122	-0,00490688	
6,89122	-0,00490688	
6,92117	-0,00556362	
6,92117	-0,00556362	
6,95069	-0,0243404	
6,95069	-0,0243404	
6,98041	-0,0229004	
6,98041	-0,0229004	
7,01028	0,0286677	
7,01028	0,0286677	
7,03962	-0,0110344	
7,03962	-0,0110344	
7,06994	-0,0331878	
7,06994	-0,0331878	
7,09895	-0,0486786	
7,09895	-0,0486786	
7,12906	-0,0123228	
7,12906	-0,0123228	
7,15897	0,000240735	
7,15897	0,000240735	
7,18803	0,000814975	
7,18803	0,000814975	
7,21756	-0,00923341	
7,21756	-0,00923341	
7,24719	-0,0308413	
7,24719	-0,0308413	
7,27658	-0,00932635	
7,27658	-0,00932635	
7,30674	-0,0175875	
7,30674	-0,0175875	
7,33609	-0,0255218	
7,33609	-0,0255218	
7,36587	-0,0153404	
7,36587	-0,0153404	
7,39547	0,00484085	
7,39547	0,00484085	
7,42454	-0,0101716	
7,42454	-0,0101716	
7,45418	-0,0151663	
7,45418	-0,0151663	
7,48394	-0,00619297	
7,48394	-0,00619297	
7,51352	0,000641822	
7,51352	0,000641822	
7,5428	-0,0446599	
7,5428	-0,0446599	
7,57338	-0,0104227	
7,57338	-0,0104227	
7,60241	0,0324161	
7,60241	0,0324161	
7,63214	-0,0187046	
7,63214	-0,0187046	
7,66176	-0,0331229	
7,66176	-0,0331229	
7,69101	-0,0239843	
7,69101	-0,0239843	
7,72098	-0,0238666	
7,72098	-0,0238666	
7,75056	-0,0182054	
7,75056	-0,0182054	
7,78046	-0,0520823	
7,78046	-0,0520823	
7,80931	-0,00866439	
7,80931	-0,00866439	
7,83918	0,0659601	
7,83918	0,0659601	
7,86889	-0,00604917	
7,86889	-0,00604917	
7,89828	-0,0221863	
7,89828	-0,0221863	
7,92805	-0,0515221	
7,92805	-0,0515221	
7,95758	-0,0129453	
7,95758	-0,0129453	
7,98784	-0,0215628	
7,98784	-0,0215628	
8,01705	-0,0169278	
8,01705	-0,0169278	
8,04621	-0,0056008	
8,04621	-0,0056008	
8,07609	-0,0158765	
8,07609	-0,0158765	
8,10585	0,0355322	
8,10585	0,0355322	
8,13551	-0,0289676	
8,13551	-0,0289676	
8,16479	-0,0288991	
8,16479	-0,0288991	
8,19417	-0,0226571	
8,19417	-0,0226571	
8,22428	-0,0350638	
8,22428	-0,0350638	
8,25395	-0,020202	
8,25395	-0,020202	
8,28304	0,0104779	
8,28304	0,0104779	
8,31266	-0,014833	
8,31266	-0,014833	
8,34221	-0,0167951	
8,34221	-0,0167951	
8,37162	-0,0135055	
8,37162	-0,0135055	
8,40116	0,0409762	
8,40116	0,0409762	
8,43146	-0,0266266	
8,43146	-0,0266266	
8,46116	0,00923521	
8,46116	0,00923521	
8,49049	-0,0506654	
8,49049	-0,0506654	
8,52021	-0,0273838	
8,52021	-0,0273838	
8,54952	-0,00906613	
8,54952	-0,00906613	
8,5793	-0,0300469	
8,5793	-0,0300469	
8,60904	-0,00598917	
8,60904	-0,00598917	
8,63844	-0,00459841	
8,63844	-0,00459841	
8,6677	0,0210823	
8,6677	0,0210823	
8,69764	-0,00887896	
8,69764	-0,00887896	
8,72712	-0,0341925	
8,72712	-0,0341925	
8,75681	-0,0190473	
8,75681	-0,0190473	
8,7863	-0,0568008	
8,7863	-0,0568008	
8,81627	-0,0453639	
8,81627	-0,0453639	
8,84576	0,00555074	
8,84576	0,00555074	
8,87494	-0,0238672	
8,87494	-0,0238672	
8,90448	-0,0075795	
8,90448	-0,0075795	
8,93379	-0,00361851	
8,93379	-0,00361851	
8,96388	-0,0132756	
8,96388	-0,0132756	
8,99369	0,0251453	
8,99369	0,0251453	
9,02315	-0,0700628	
9,02315	-0,0700628	
9,05254	-0,0205007	
9,05254	-0,0205007	
9,08249	-0,0126394	
9,08249	-0,0126394	
9,11173	-0,00639091	
9,11173	-0,00639091	
9,1405	-0,00768874	
9,1405	-0,00768874	
9,17075	-0,00996842	
9,17075	-0,00996842	
9,2005	0,0174986	
9,2005	0,0174986	
9,22992	0,0116867	
9,22992	0,0116867	
9,25942	-0,0245745	
9,25942	-0,0245745	
9,28989	-0,0327388	
9,28989	-0,0327388	
9,31902	0,03008	
9,31902	0,03008	
9,34886	-0,00500667	
9,34886	-0,00500667	
9,37829	-0,0803466	
9,37829	-0,0803466	
9,40775	0,00543433	
9,40775	0,00543433	
9,43733	-0,00399677	
9,43733	-0,00399677	
9,46739	-0,0108224	
9,46739	-0,0108224	
9,49624	-0,0111981	
9,49624	-0,0111981	
9,52581	-0,0099632	
9,52581	-0,0099632	
9,55507	-0,00509145	
9,55507	-0,00509145	
9,58512	-0,00772754	
9,58512	-0,00772754	
9,61484	-0,0112245	
9,61484	-0,0112245	
9,64392	0,014317	
9,64392	0,014317	
9,67403	-0,0408359	
9,67403	-0,0408359	
9,70409	-0,00371895	
9,70409	-0,00371895	
9,73347	0,00257291	
9,73347	0,00257291	
9,7624	-0,0112708	
9,7624	-0,0112708	
9,79201	-0,0127607	
9,79201	-0,0127607	
9,82219	-0,0156847	
9,82219	-0,0156847	
9,85202	-0,00446667	
9,85202	-0,00446667	
9,88156	-0,02568	
9,88156	-0,02568	
9,91072	-0,006987	
9,91072	-0,006987	
9,94032	-0,0235037	
9,94032	-0,0235037	
9,96988	-0,00830146	
9,96988	-0,00830146	
9,99954	-0,0141407	
9,99954	-0,0141407	
10,029	-0,00927189	
10,029	-0,00927189	
10,0591	-0,00427427	
10,0591	-0,00427427	
10,0888	-0,050252	
10,0888	-0,050252	
10,1184	-0,0194807	
10,1184	-0,0194807	
10,1477	0,00983977	
10,1477	0,00983977	
10,1773	-0,0302083	
10,1773	-0,0302083	
10,2063	0,0035365	
10,2063	0,0035365	
10,2367	-0,0150769	
10,2367	-0,0150769	
10,2662	-0,0141697	
10,2662	-0,0141697	
10,2962	-0,0044158	
10,2962	-0,0044158	
10,3257	0,00183922	
10,3257	0,00183922	
10,3552	-0,0196343	
10,3552	-0,0196343	
10,3853	-0,0282724	
10,3853	-0,0282724	
10,4147	-0,0184998	
10,4147	-0,0184998	
10,4444	-0,00182112	
10,4444	-0,00182112	
10,4742	0,00827618	
10,4742	0,00827618	
10,5035	-0,0182409	
10,5035	-0,0182409	
10,5327	-0,0102844	
10,5327	-0,0102844	
10,562	-0,0109992	
10,562	-0,0109992	
10,5918	-0,0595595	
10,5918	-0,0595595	
10,6216	-0,0206269	
10,6216	-0,0206269	
10,6514	-0,01195	
10,6514	-0,01195	
10,6811	0,0185916	
10,6811	0,0185916	
10,7109	-0,0103252	
10,7109	-0,0103252	
10,7397	-0,0112092	
10,7397	-0,0112092	
10,7692	-0,0174133	
10,7692	-0,0174133	
10,799	-0,0349816	
10,799	-0,0349816	
10,8285	0,00625868	
10,8285	0,00625868	
10,8582	-0,0183815	
10,8582	-0,0183815	
10,8879	-0,00836961	
10,8879	-0,00836961	
10,9164	-0,00761472	
10,9164	-0,00761472	
10,9463	0,00449781	
10,9463	0,00449781	
10,9766	-0,0271624	
10,9766	-0,0271624	
11,0065	-0,0245025	
11,0065	-0,0245025	
11,0361	-0,0128031	
11,0361	-0,0128031	
11,0655	-0,00319982	
11,0655	-0,00319982	
11,0952	-0,00967233	
11,0952	-0,00967233	
11,1249	-0,0319741	
11,1249	-0,0319741	
11,1544	0,0206476	
11,1544	0,0206476	
11,1834	-0,0157998	
11,1834	-0,0157998	
11,2132	-0,0114802	
11,2132	-0,0114802	
11,2428	-0,0484318	
11,2428	-0,0484318	
11,2724	-0,0228244	
11,2724	-0,0228244	
11,3022	0,00151998	
11,3022	0,00151998	
11,3316	0,0489253	
11,3316	0,0489253	
11,3612	-0,0278106	
11,3612	-0,0278106	
11,3905	-0,0215367	
11,3905	-0,0215367	
11,4203	-0,0158448	
11,4203	-0,0158448	
11,4498	-0,0177613	
11,4498	-0,0177613	
11,4795	0,00109019	
11,4795	0,00109019	
11,509	-0,0277545	
11,509	-0,0277545	
11,539	-0,0161924	
11,539	-0,0161924	
11,5683	0,0130354	
11,5683	0,0130354	
11,5975	-0,0191778	
11,5975	-0,0191778	
11,6271	-0,00899015	
11,6271	-0,00899015	
11,6567	-0,000207962	
11,6567	-0,000207962	
11,6871	-0,00334655	
11,6871	-0,00334655	
11,7167	-0,0132185	
11,7167	-0,0132185	
11,746	0,00103671	
11,746	0,00103671	
11,7753	0,0101835	
11,7753	0,0101835	
11,8056	0,019401	
11,8056	0,019401	
11,8345	0,000243669	
11,8345	0,000243669	
11,8641	0,0229818	
11,8641	0,0229818	
11,8936	0,0477116	
11,8936	0,0477116	
11,9235	0,0621266	
11,9235	0,0621266	
11,9531	0,0606625	
11,9531	0,0606625	
11,9824	0,0637773	
11,9824	0,0637773	
12,012	0,06289	
12,012	0,06289	
12,042	0,081538	
12,042	0,081538	
12,0713	0,0804361	
12,0713	0,0804361	
12,1012	0,0858361	
12,1012	0,0858361	
12,1307	0,0483801	
12,1307	0,0483801	
12,1604	0,10701	
12,1604	0,10701	
12,1894	0,0545177	
12,1894	0,0545177	
12,2192	0,0735113	
12,2192	0,0735113	
12,2485	0,0550623	
12,2485	0,0550623	
12,2777	0,0391652	
12,2777	0,0391652	
12,308	0,00150758	
12,308	0,00150758	
12,3376	0,0380839	
12,3376	0,0380839	
12,3672	-0,00196297	
12,3672	-0,00196297	
12,3966	0,0225523	
12,3966	0,0225523	
12,4263	-0,0125553	
12,4263	-0,0125553	
12,4557	-0,0240146	
12,4557	-0,0240146	
12,4851	-0,0406347	
12,4851	-0,0406347	
12,5149	-0,0254856	
12,5149	-0,0254856	
12,5442	-0,00696221	
12,5442	-0,00696221	
12,5741	-0,0100128	
12,5741	-0,0100128	
12,6042	-0,00152601	
12,6042	-0,00152601	
12,6337	0,00655673	
12,6337	0,00655673	
12,6632	-0,0209797	
12,6632	-0,0209797	
12,6926	-0,019274	
12,6926	-0,019274	
12,7223	0,0238602	
12,7223	0,0238602	
12,7519	-0,0147449	
12,7519	-0,0147449	
12,7811	0,0471732	
12,7811	0,0471732	
12,811	0,0236039	
12,811	0,0236039	
12,8402	0,0187358	
12,8402	0,0187358	
12,8702	-0,00011307	
12,8702	-0,00011307	
12,9001	0,010414	
12,9001	0,010414	
12,9291	0,0506819	
12,9291	0,0506819	
12,9586	0,0679368	
12,9586	0,0679368	
12,9884	0,043523	
12,9884	0,043523	
13,0187	0,0920996	
13,0187	0,0920996	
13,0477	0,0905523	
13,0477	0,0905523	
13,0773	0,0536174	
13,0773	0,0536174	
13,1061	0,0487919	
13,1061	0,0487919	
13,136	0,112696	
13,136	0,112696	
13,1658	0,0727757	
13,1658	0,0727757	
13,1955	0,0459765	
13,1955	0,0459765	
13,2246	0,0295498	
13,2246	0,0295498	
13,2544	0,0847352	
13,2544	0,0847352	
13,2837	0,0655156	
13,2837	0,0655156	
13,3132	0,0299124	
13,3132	0,0299124	
13,3428	0,0206003	
13,3428	0,0206003	
13,3724	0,0115152	
13,3724	0,0115152	
13,4023	0,0132109	
13,4023	0,0132109	
13,4318	-0,0136946	
13,4318	-0,0136946	
13,462	-0,014293	
13,462	-0,014293	
13,4913	-0,00982852	
13,4913	-0,00982852	
13,521	-0,0104112	
13,521	-0,0104112	
13,5506	-0,0252479	
13,5506	-0,0252479	
13,5801	-9,57878E-5	
13,5801	-9,57878E-5	
13,6095	-0,0176559	
13,6095	-0,0176559	
13,6392	0,0132617	
13,6392	0,0132617	
13,6693	-0,00113731	
13,6693	-0,00113731	
13,6989	-0,00738808	
13,6989	-0,00738808	
13,7283	0,0205821	
13,7283	0,0205821	
13,7585	0,0338793	
13,7585	0,0338793	
13,7876	0,0299894	
13,7876	0,0299894	
13,8172	0,066191	
13,8172	0,066191	
13,8472	0,0709029	
13,8472	0,0709029	
13,876	0,0967734	
13,876	0,0967734	
13,906	0,116412	
13,906	0,116412	
13,9359	0,130555	
13,9359	0,130555	
13,9652	0,15841	
13,9652	0,15841	
13,9949	0,197497	
13,9949	0,197497	
14,0244	0,161348	
14,0244	0,161348	
14,0539	0,25037	
14,0539	0,25037	
14,084	0,200251	
14,084	0,200251	
14,1128	0,222922	
14,1128	0,222922	
14,1421	0,228592	
14,1421	0,228592	
14,1721	0,234905	
14,1721	0,234905	
14,2018	0,193904	
14,2018	0,193904	
14,2312	0,202611	
14,2312	0,202611	
14,2608	0,21685	
14,2608	0,21685	
14,2906	0,177971	
14,2906	0,177971	
14,3203	0,13423	
14,3203	0,13423	
14,3497	0,145043	
14,3497	0,145043	
14,3792	0,0655753	
14,3792	0,0655753	
14,409	0,0236111	
14,409	0,0236111	
14,4386	0,00314128	
14,4386	0,00314128	
14,468	-0,0163861	
14,468	-0,0163861	
14,4975	0,00627857	
14,4975	0,00627857	
14,5272	0,000664322	
14,5272	0,000664322	
14,5568	0,0013465	
14,5568	0,0013465	
14,5865	0,00937412	
14,5865	0,00937412	
14,6162	0,0180924	
14,6162	0,0180924	
14,6456	0,053437	
14,6456	0,053437	
14,6755	0,0278519	
14,6755	0,0278519	
14,7048	0,0681045	
14,7048	0,0681045	
14,7343	0,100181	
14,7343	0,100181	
14,7636	0,0943294	
14,7636	0,0943294	
14,7933	0,178021	
14,7933	0,178021	
14,8231	0,249112	
14,8231	0,249112	
14,8524	0,297303	
14,8524	0,297303	
14,8823	0,38831	
14,8823	0,38831	
14,9113	0,504408	
14,9113	0,504408	
14,9411	0,605009	
14,9411	0,605009	
14,9708	0,668158	
14,9708	0,668158	
15,0003	0,766443	
15,0003	0,766443	
15,0299	0,830719	
15,0299	0,830719	
15,0595	0,849282	
15,0595	0,849282	
15,0891	0,854941	
15,0891	0,854941	
15,1187	0,905955	
15,1187	0,905955	
15,1486	0,889659	
15,1486	0,889659	
15,1781	0,879689	
15,1781	0,879689	
15,2078	0,833607	
15,2078	0,833607	
15,2373	0,800341	
15,2373	0,800341	
15,267	0,752499	
15,267	0,752499	
15,2964	0,69821	
15,2964	0,69821	
15,326	0,613646	
15,326	0,613646	
15,3551	0,512341	
15,3551	0,512341	
15,385	0,387874	
15,385	0,387874	
15,4145	0,221361	
15,4145	0,221361	
15,4441	0,0782334	
15,4441	0,0782334	
15,4739	-0,0220447	
15,4739	-0,0220447	
15,5032	0,0154892	
15,5032	0,0154892	
15,533	-0,052036	
15,533	-0,052036	
15,5626	-0,00558515	
15,5626	-0,00558515	
15,5918	-0,0492043	
15,5918	-0,0492043	
15,6215	-0,0250366	
15,6215	-0,0250366	
15,6508	-0,0196848	
15,6508	-0,0196848	
15,6809	0,00920945	
15,6809	0,00920945	
15,7106	0,00240074	
15,7106	0,00240074	
15,7401	0,00357237	
15,7401	0,00357237	
15,7692	0,0618256	
15,7692	0,0618256	
15,7984	0,0501171	
15,7984	0,0501171	
15,8283	0,0611395	
15,8283	0,0611395	
15,8583	0,0991232	
15,8583	0,0991232	
15,8874	0,0962892	
15,8874	0,0962892	
15,9175	0,156493	
15,9175	0,156493	
15,9467	0,170417	
15,9467	0,170417	
15,9767	0,212011	
15,9767	0,212011	
16,006	0,213218	
16,006	0,213218	
16,0356	0,255816	
16,0356	0,255816	
16,065	0,261249	
16,065	0,261249	
16,0949	0,275323	
16,0949	0,275323	
16,1241	0,276467	
16,1241	0,276467	
16,154	0,195932	
16,154	0,195932	
16,1833	0,253304	
16,1833	0,253304	
16,2129	0,290895	
16,2129	0,290895	
16,2426	0,202818	
16,2426	0,202818	
16,272	0,197453	
16,272	0,197453	
16,3021	0,248149	
16,3021	0,248149	
16,3316	0,173129	
16,3316	0,173129	
16,3607	0,160677	
16,3607	0,160677	
16,3906	0,156983	
16,3906	0,156983	
16,42	0,032572	
16,42	0,032572	
16,4499	0,044152	
16,4499	0,044152	
16,4791	-0,0110735	
16,4791	-0,0110735	
16,5089	-0,051588	
16,5089	-0,051588	
16,5391	-0,0141097	
16,5391	-0,0141097	
16,5683	-0,0313213	
16,5683	-0,0313213	
16,598	-0,00316688	
16,598	-0,00316688	
16,6271	-0,0299514	
16,6271	-0,0299514	
16,6567	-0,00842602	
16,6567	-0,00842602	
16,6865	-0,00750743	
16,6865	-0,00750743	
16,716	0,0359388	
16,716	0,0359388	
16,7461	-0,0277748	
16,7461	-0,0277748	
16,7755	-0,0209188	
16,7755	-0,0209188	
16,8051	0,0262361	
16,8051	0,0262361	
16,8345	0,0192696	
16,8345	0,0192696	
16,8647	-0,00625134	
16,8647	-0,00625134	
16,894	0,0132425	
16,894	0,0132425	
16,9233	0,0309536	
16,9233	0,0309536	
16,9533	0,0362512	
16,9533	0,0362512	
16,9824	0,0449395	
16,9824	0,0449395	
17,0123	0,0414497	
17,0123	0,0414497	
17,0422	0,0117083	
17,0422	0,0117083	
17,0716	0,0546771	
17,0716	0,0546771	
17,1012	0,0372716	
17,1012	0,0372716	
17,131	0,0399699	
17,131	0,0399699	
17,1606	0,061327	
17,1606	0,061327	
17,1894	0,0692464	
17,1894	0,0692464	
17,2192	-0,00751461	
17,2192	-0,00751461	
17,2492	0,0386265	
17,2492	0,0386265	
17,2784	0,0644735	
17,2784	0,0644735	
17,3078	0,041093	
17,3078	0,041093	
17,3374	0,0181661	
17,3374	0,0181661	
17,3676	0,00544933	
17,3676	0,00544933	
17,3972	0,00356389	
17,3972	0,00356389	
17,4264	-0,00421264	
17,4264	-0,00421264	
17,4558	-0,00109655	
17,4558	-0,00109655	
17,4853	-0,0264812	
17,4853	-0,0264812	
17,5147	-0,0126652	
17,5147	-0,0126652	
17,5443	-0,0086132	
17,5443	-0,0086132	
17,5739	-0,0252958	
17,5739	-0,0252958	
17,604	0,0038577	
17,604	0,0038577	
17,6335	-0,000752854	
17,6335	-0,000752854	
17,6627	0,00950097	
17,6627	0,00950097	
17,6923	0,00129563	
17,6923	0,00129563	
17,7223	0,00706216	
17,7223	0,00706216	
17,752	0,0191336	
17,752	0,0191336	
17,7814	0,0245043	
17,7814	0,0245043	
17,811	0,0518066	
17,811	0,0518066	
17,8402	0,0579328	
17,8402	0,0579328	
17,87	0,0542356	
17,87	0,0542356	
17,8993	0,100865	
17,8993	0,100865	
17,9292	0,114891	
17,9292	0,114891	
17,9588	0,14904	
17,9588	0,14904	
17,9888	0,164671	
17,9888	0,164671	
18,0178	0,183397	
18,0178	0,183397	
18,0475	0,199083	
18,0475	0,199083	
18,0768	0,21003	
18,0768	0,21003	
18,1064	0,219605	
18,1064	0,219605	
18,1356	0,23347	
18,1356	0,23347	
18,1657	0,221416	
18,1657	0,221416	
18,1954	0,207769	
18,1954	0,207769	
18,2248	0,201812	
18,2248	0,201812	
18,2542	0,1898	
18,2542	0,1898	
18,2842	0,192047	
18,2842	0,192047	
18,3133	0,140891	
18,3133	0,140891	
18,343	0,153994	
18,343	0,153994	
18,3727	0,12374	
18,3727	0,12374	
18,4021	0,0855192	
18,4021	0,0855192	
18,4323	0,0537592	
18,4323	0,0537592	
18,4614	0,0269121	
18,4614	0,0269121	
18,4915	-0,00825254	
18,4915	-0,00825254	
18,5208	-0,0402946	
18,5208	-0,0402946	
18,55	-0,0207348	
18,55	-0,0207348	
18,5802	0,000577583	
18,5802	0,000577583	
18,6092	-0,0217369	
18,6092	-0,0217369	
18,6389	-0,0187503	
18,6389	-0,0187503	
18,6682	-0,0214522	
18,6682	-0,0214522	
18,698	-0,0256324	
18,698	-0,0256324	
18,7275	-0,0226438	
18,7275	-0,0226438	
18,7569	0,00683749	
18,7569	0,00683749	
18,7871	-0,0194018	
18,7871	-0,0194018	
18,8167	-0,00389927	
18,8167	-0,00389927	
18,8456	-0,0167207	
18,8456	-0,0167207	
18,8758	-0,0134321	
18,8758	-0,0134321	
18,9049	0,0114881	
18,9049	0,0114881	
18,9344	-0,0196862	
18,9344	-0,0196862	
18,9643	-0,0256258	
18,9643	-0,0256258	
18,9939	0,00486042	
18,9939	0,00486042	
19,0228	-0,0223568	
19,0228	-0,0223568	
19,0528	-0,00502884	
19,0528	-0,00502884	
19,0827	0,0015353	
19,0827	0,0015353	
19,1118	-0,00369221	
19,1118	-0,00369221	
19,1415	0,0181879	
19,1415	0,0181879	
19,1711	-0,00602504	
19,1711	-0,00602504	
19,2008	-0,00726939	
19,2008	-0,00726939	
19,23	0,0186259	
19,23	0,0186259	
19,26	-0,0632857	
19,26	-0,0632857	
19,2894	0,019205	
19,2894	0,019205	
19,319	-0,0194357	
19,319	-0,0194357	
19,3488	0,0222487	
19,3488	0,0222487	
19,3783	0,015636	
19,3783	0,015636	
19,4077	-0,0195662	
19,4077	-0,0195662	
19,4372	-0,0153909	
19,4372	-0,0153909	
19,4668	0,0146183	
19,4668	0,0146183	
19,4959	-0,00581504	
19,4959	-0,00581504	
19,5251	-0,0211998	
19,5251	-0,0211998	
19,5549	-0,0494893	
19,5549	-0,0494893	
19,5847	0,00691118	
19,5847	0,00691118	
19,6143	-0,00841233	
19,6143	-0,00841233	
19,6433	-0,00358656	
19,6433	-0,00358656	
19,6738	-0,0101484	
19,6738	-0,0101484	
19,7032	-0,0182253	
19,7032	-0,0182253	
19,7324	-0,0393825	
19,7324	-0,0393825	
19,7623	0,000284756	
19,7623	0,000284756	
19,7917	-0,00244036	
19,7917	-0,00244036	
19,8214	0,0260026	
19,8214	0,0260026	
19,851	-0,0297336	
19,851	-0,0297336	
19,8805	0,0180657	
19,8805	0,0180657	
19,9098	0,0075901	
19,9098	0,0075901	
19,9402	0,0387158	
19,9402	0,0387158	
19,9691	0,0307009	
19,9691	0,0307009	
19,9993	0,0568848	
19,9993	0,0568848	
20,0285	0,0180953	
20,0285	0,0180953	
20,0584	0,0198624	
20,0584	0,0198624	
20,0879	0,0355521	
20,0879	0,0355521	
20,1179	0,0460613	
20,1179	0,0460613	
20,1473	0,0362395	
20,1473	0,0362395	
20,1764	0,0692992	
20,1764	0,0692992	
20,2062	0,0440917	
20,2062	0,0440917	
20,236	0,0185665	
20,236	0,0185665	
20,2652	0,0127018	
20,2652	0,0127018	
20,2949	0,0356649	
20,2949	0,0356649	
20,3245	0,0300285	
20,3245	0,0300285	
20,3549	0,0421609	
20,3549	0,0421609	
20,3844	0,0368995	
20,3844	0,0368995	
20,4134	0,00925836	
20,4134	0,00925836	
20,4443	0,00997738	
20,4443	0,00997738	
20,4732	-0,0248902	
20,4732	-0,0248902	
20,5028	-0,00794732	
20,5028	-0,00794732	
20,5324	-0,0079558	
20,5324	-0,0079558	
20,5619	-0,0134712	
20,5619	-0,0134712	
20,5919	-0,00789254	
20,5919	-0,00789254	
20,6207	-0,00459743	
20,6207	-0,00459743	
20,6505	0,00524227	
20,6505	0,00524227	
20,68	-0,0100839	
20,68	-0,0100839	
20,7093	-0,0424154	
20,7093	-0,0424154	
20,7389	-0,0378072	
20,7389	-0,0378072	
20,7688	-0,0253108	
20,7688	-0,0253108	
20,7974	-0,00687613	
20,7974	-0,00687613	
20,8278	-0,00176633	
20,8278	-0,00176633	
20,8566	-0,022136	
20,8566	-0,022136	
20,8869	-0,013556	
20,8869	-0,013556	
20,9163	-0,0256174	
20,9163	-0,0256174	
20,9459	0,00951336	
20,9459	0,00951336	
20,9755	0,0039627	
20,9755	0,0039627	
21,0054	-0,0456121	
21,0054	-0,0456121	
21,0345	-0,0159665	
21,0345	-0,0159665	
21,0646	-0,0282277	
21,0646	-0,0282277	
21,094	0,0149176	
21,094	0,0149176	
21,1236	-0,00697167	
21,1236	-0,00697167	
21,1531	-0,00375938	
21,1531	-0,00375938	
21,1826	-0,00568428	
21,1826	-0,00568428	
21,2123	-0,0148219	
21,2123	-0,0148219	
21,2416	-0,0191465	
21,2416	-0,0191465	
21,2715	-0,00314405	
21,2715	-0,00314405	
21,3009	-0,0231534	
21,3009	-0,0231534	
21,3306	-0,0171495	
21,3306	-0,0171495	
21,3603	-0,0113334	
21,3603	-0,0113334	
21,3895	2,02994E-5	
21,3895	2,02994E-5	
21,4191	-0,0141626	
21,4191	-0,0141626	
21,4484	-0,0184261	
21,4484	-0,0184261	
21,4778	-0,0117567	
21,4778	-0,0117567	
21,5077	-0,000814811	
21,5077	-0,000814811	
21,5374	0,00197389	
21,5374	0,00197389	
21,5668	-0,0294518	
21,5668	-0,0294518	
21,5967	-0,013453	
21,5967	-0,013453	
21,6255	-0,00425764	
21,6255	-0,00425764	
21,6554	-0,0233429	
21,6554	-0,0233429	
21,6852	-0,0103281	
21,6852	-0,0103281	
21,7148	-0,0178907	
21,7148	-0,0178907	
21,7444	-0,00199362	
21,7444	-0,00199362	
21,7738	-0,0199708	
21,7738	-0,0199708	
21,8032	0,00346118	
21,8032	0,00346118	
21,833	-0,0161223	
21,833	-0,0161223	
21,8625	-0,0538239	
21,8625	-0,0538239	
21,8921	-0,0227165	
21,8921	-0,0227165	
21,9218	-0,0171133	
21,9218	-0,0171133	
21,9516	-0,00626276	
21,9516	-0,00626276	
21,9809	-0,0106473	
21,9809	-0,0106473	
22,0103	-0,0188719	
22,0103	-0,0188719	
22,0403	-0,0180283	
22,0403	-0,0180283	
22,0697	-0,00923863	
22,0697	-0,00923863	
22,0996	-0,00338927	
22,0996	-0,00338927	
22,1292	0,0123171	
22,1292	0,0123171	
22,1585	-0,0192847	
22,1585	-0,0192847	
22,1882	0,00504531	
22,1882	0,00504531	
22,2174	0,00870695	
22,2174	0,00870695	
22,2469	-0,0576812	
22,2469	-0,0576812	
22,2765	-0,0119562	
22,2765	-0,0119562	
22,306	0,00372955	
22,306	0,00372955	
22,336	-0,017009	
22,336	-0,017009	
22,365	-0,0124199	
22,365	-0,0124199	
22,395	-0,0129123	
22,395	-0,0129123	
22,4243	-0,00467112	
22,4243	-0,00467112	
22,4538	-0,0116804	
22,4538	-0,0116804	
22,483	-0,0435049	
22,483	-0,0435049	
22,5127	-0,0439014	
22,5127	-0,0439014	
22,5418	-0,00555645	
22,5418	-0,00555645	
22,5724	-0,0215677	
22,5724	-0,0215677	
22,6017	0,0184384	
22,6017	0,0184384	
22,631	-0,0137879	
22,631	-0,0137879	
22,6608	0,000194104	
22,6608	0,000194104	
22,6903	0,0100664	
22,6903	0,0100664	
22,7202	-0,0308794	
22,7202	-0,0308794	
22,75	-0,0318036	
22,75	-0,0318036	
22,779	0,00150008	
22,779	0,00150008	
22,8084	-0,0164624	
22,8084	-0,0164624	
22,8381	0,0164685	
22,8381	0,0164685	
22,8678	-0,0270221	
22,8678	-0,0270221	
22,8973	-0,0379138	
22,8973	-0,0379138	
22,9268	0,000858345	
22,9268	0,000858345	
22,9561	-0,0044846	
22,9561	-0,0044846	
22,9857	-0,00969776	
22,9857	-0,00969776	
23,0159	-0,0222756	
23,0159	-0,0222756	
23,0458	-0,014711	
23,0458	-0,014711	
23,0752	-0,0251312	
23,0752	-0,0251312	
23,1047	-0,0264163	
23,1047	-0,0264163	
23,1344	0,0427811	
23,1344	0,0427811	
23,1641	-0,0403448	
23,1641	-0,0403448	
23,1938	-0,00755276	
23,1938	-0,00755276	
23,2234	-0,00768319	
23,2234	-0,00768319	
23,2531	0,000232582	
23,2531	0,000232582	
23,2822	0,000755301	
23,2822	0,000755301	
23,3119	-0,0370402	
23,3119	-0,0370402	
23,3412	-0,0249711	
23,3412	-0,0249711	
23,371	-0,0221742	
23,371	-0,0221742	
23,4005	-0,0275162	
23,4005	-0,0275162	
23,4304	-0,00486221	
23,4304	-0,00486221	
23,4595	-0,00142427	
23,4595	-0,00142427	
23,4895	-0,0107077	
23,4895	-0,0107077	
23,5192	-0,00619656	
23,5192	-0,00619656	
23,5483	-0,051078	
23,5483	-0,051078	
23,5781	-0,0167064	
23,5781	-0,0167064	
23,6076	-0,0120756	
23,6076	-0,0120756	
23,6375	0,0230147	
23,6375	0,0230147	
23,6664	-0,00259623	
23,6664	-0,00259623	
23,6958	-0,0374664	
23,6958	-0,0374664	
23,726	-0,0209553	
23,726	-0,0209553	
23,7549	-0,0215175	
23,7549	-0,0215175	
23,785	-0,00575406	
23,785	-0,00575406	
23,8146	-0,0210381	
23,8146	-0,0210381	
23,8444	-0,0174502	
23,8444	-0,0174502	
23,8739	-0,00561189	
23,8739	-0,00561189	
23,9029	0,00196867	
23,9029	0,00196867	
23,9326	-0,00186318	
23,9326	-0,00186318	
23,9622	0,00502118	
23,9622	0,00502118	
23,9916	-0,0114443	
23,9916	-0,0114443	
24,0216	0,0065864	
24,0216	0,0065864	
24,0511	0,0190123	
24,0511	0,0190123	
24,0807	-0,00356829	
24,0807	-0,00356829	
24,11	-0,028636	
24,11	-0,028636	
24,1391	0,0114751	
24,1391	0,0114751	
24,1689	0,00288824	
24,1689	0,00288824	
24,1983	0,00636988	
24,1983	0,00636988	
24,2287	0,0341118	
24,2287	0,0341118	
24,258	0,0112628	
24,258	0,0112628	
24,2873	0,0157341	
24,2873	0,0157341	
24,3166	0,0168921	
24,3166	0,0168921	
24,3463	0,000930084	
24,3463	0,000930084	
24,3764	-0,00694395	
24,3764	-0,00694395	
24,4054	0,00447857	
24,4054	0,00447857	
24,4357	-0,00580786	
24,4357	-0,00580786	
24,4648	0,00759238	
24,4648	0,00759238	
24,4949	-0,00795678	
24,4949	-0,00795678	
24,5239	-0,0332465	
24,5239	-0,0332465	
24,5535	-0,00132905	
24,5535	-0,00132905	
24,5835	-0,00617276	
24,5835	-0,00617276	
24,6135	-0,0241382	
24,6135	-0,0241382	
24,6424	-0,00367786	
24,6424	-0,00367786	
24,6722	0,0115922	
24,6722	0,0115922	
24,7015	-0,0210472	
24,7015	-0,0210472	
24,7304	-0,00911178	
24,7304	-0,00911178	
24,7608	-0,0129619	
24,7608	-0,0129619	
24,7899	-0,0196121	
24,7899	-0,0196121	
24,8193	-0,00838722	
24,8193	-0,00838722	
24,8491	-0,0129899	
24,8491	-0,0129899	
24,8786	0,000211387	
24,8786	0,000211387	
24,9081	0,00179976	
24,9081	0,00179976	
24,9379	0,0414054	
24,9379	0,0414054	
24,9674	0,0310351	
24,9674	0,0310351	
24,9963	0,0101147	
24,9963	0,0101147	
25,0262	0,0231898	
25,0262	0,0231898	
25,0559	0,0199381	
25,0559	0,0199381	
25,0854	0,0425056	
25,0854	0,0425056	
25,115	0,0397798	
25,115	0,0397798	
25,1449	0,0535919	
25,1449	0,0535919	
25,1741	0,0429181	
25,1741	0,0429181	
25,2042	0,0161965	
25,2042	0,0161965	
25,2333	0,0515809	
25,2333	0,0515809	
25,2633	0,0524927	
25,2633	0,0524927	
25,293	0,0302506	
25,293	0,0302506	
25,3225	0,0566633	
25,3225	0,0566633	
25,3516	0,0932181	
25,3516	0,0932181	
25,3812	0,00716618	
25,3812	0,00716618	
25,4108	0,0382864	
25,4108	0,0382864	
25,4402	0,0368444	
25,4402	0,0368444	
25,47	0,0554545	
25,47	0,0554545	
25,4997	0,0243761	
25,4997	0,0243761	
25,5296	0,0518209	
25,5296	0,0518209	
25,5582	-0,0372711	
25,5582	-0,0372711	
25,5878	0,0216869	
25,5878	0,0216869	
25,6176	-0,00898526	
25,6176	-0,00898526	
25,6473	-0,000419593	
25,6473	-0,000419593	
25,6764	-0,0518081	
25,6764	-0,0518081	
25,7062	0,0234177	
25,7062	0,0234177	
25,7362	0,014434	
25,7362	0,014434	
25,7655	-0,0245638	
25,7655	-0,0245638	
25,7942	-0,0170592	
25,7942	-0,0170592	
25,8242	0,0326829	
25,8242	0,0326829	
25,8537	0,0297709	
25,8537	0,0297709	
25,8835	0,0691884	
25,8835	0,0691884	
25,9133	0,0273686	
25,9133	0,0273686	
25,9431	0,0891723	
25,9431	0,0891723	
25,9726	0,0572102	
25,9726	0,0572102	
26,0023	0,10885	
26,0023	0,10885	
26,0321	0,157063	
26,0321	0,157063	
26,0616	0,156274	
26,0616	0,156274	
26,0912	0,192748	
26,0912	0,192748	
26,1205	0,224587	
26,1205	0,224587	
26,1497	0,197426	
26,1497	0,197426	
26,1791	0,228309	
26,1791	0,228309	
26,2088	0,233889	
26,2088	0,233889	
26,2387	0,207182	
26,2387	0,207182	
26,268	0,221594	
26,268	0,221594	
26,298	0,267459	
26,298	0,267459	
26,3276	0,23779	
26,3276	0,23779	
26,3572	0,242665	
26,3572	0,242665	
26,3868	0,195831	
26,3868	0,195831	
26,4163	0,18094	
26,4163	0,18094	
26,4462	0,240552	
26,4462	0,240552	
26,4757	0,176244	
26,4757	0,176244	
26,5054	0,133203	
26,5054	0,133203	
26,5346	0,0850255	
26,5346	0,0850255	
26,5642	0,0759769	
26,5642	0,0759769	
26,5945	0,0264321	
26,5945	0,0264321	
26,6231	-0,00308536	
26,6231	-0,00308536	
26,6529	0,00989684	
26,6529	0,00989684	
26,6825	-0,00751526	
26,6825	-0,00751526	
26,712	-0,0468183	
26,712	-0,0468183	
26,742	-0,0420117	
26,742	-0,0420117	
26,7714	0,0133967	
26,7714	0,0133967	
26,8009	0,0275167	
26,8009	0,0275167	
26,8306	-0,00432319	
26,8306	-0,00432319	
26,8598	0,00658183	
26,8598	0,00658183	
26,8895	0,0401043	
26,8895	0,0401043	
26,9192	0,0152355	
26,9192	0,0152355	
26,949	-0,00241003	
26,949	-0,00241003	
26,9783	0,0249768	
26,9783	0,0249768	
27,0083	0,0225053	
27,0083	0,0225053	
27,0383	0,0883613	
27,0383	0,0883613	
27,0676	0,0729289	
27,0676	0,0729289	
27,0969	0,073452	
27,0969	0,073452	
27,127	0,0998595	
27,127	0,0998595	
27,1561	0,102173	
27,1561	0,102173	
27,186	0,133225	
27,186	0,133225	
27,2156	0,136519	
27,2156	0,136519	
27,2446	0,161393	
27,2446	0,161393	
27,2742	0,130181	
27,2742	0,130181	
27,3038	0,133521	
27,3038	0,133521	
27,3338	0,136294	
27,3338	0,136294	
27,3628	0,139783	
27,3628	0,139783	
27,3933	0,113371	
27,3933	0,113371	
27,4221	0,127765	
27,4221	0,127765	
27,4523	0,136733	
27,4523	0,136733	
27,4813	0,12355	
27,4813	0,12355	
27,5106	0,0918567	
27,5106	0,0918567	
27,5397	0,0646603	
27,5397	0,0646603	
27,5702	0,0541489	
27,5702	0,0541489	
27,5996	0,0461072	
27,5996	0,0461072	
27,6297	0,00810923	
27,6297	0,00810923	
27,6587	0,0366719	
27,6587	0,0366719	
27,6886	-0,00746113	
27,6886	-0,00746113	
27,7181	0,0285102	
27,7181	0,0285102	
27,7471	0,0404092	
27,7471	0,0404092	
27,7768	0,0406143	
27,7768	0,0406143	
27,8065	0,0356838	
27,8065	0,0356838	
27,8356	0,0822795	
27,8356	0,0822795	
27,8656	0,157209	
27,8656	0,157209	
27,8953	0,128294	
27,8953	0,128294	
27,9248	0,187527	
27,9248	0,187527	
27,9547	0,251262	
27,9547	0,251262	
27,9839	0,288972	
27,9839	0,288972	
28,0139	0,379575	
28,0139	0,379575	
28,043	0,486053	
28,043	0,486053	
28,0727	0,552018	
28,0727	0,552018	
28,1019	0,633788	
28,1019	0,633788	
28,1316	0,692707	
28,1316	0,692707	
28,1611	0,756554	
28,1611	0,756554	
28,1908	0,797662	
28,1908	0,797662	
28,2202	0,826407	
28,2202	0,826407	
28,2493	0,844999	
28,2493	0,844999	
28,2793	0,855624	
28,2793	0,855624	
28,3084	0,908027	
28,3084	0,908027	
28,3385	0,877189	
28,3385	0,877189	
28,3679	0,856779	
28,3679	0,856779	
28,3978	0,785623	
28,3978	0,785623	
28,427	0,753697	
28,427	0,753697	
28,4568	0,753169	
28,4568	0,753169	
28,4866	0,638113	
28,4866	0,638113	
28,5165	0,541467	
28,5165	0,541467	
28,5458	0,448816	
28,5458	0,448816	
28,5754	0,277729	
28,5754	0,277729	
28,6049	0,144751	
28,6049	0,144751	
28,6347	0,0447563	
28,6347	0,0447563	
28,6636	-0,0472278	
28,6636	-0,0472278	
28,693	-0,012461	
28,693	-0,012461	
28,7226	-0,0750483	
28,7226	-0,0750483	
28,7521	-0,0354081	
28,7521	-0,0354081	
28,7818	-0,0217379	
28,7818	-0,0217379	
28,8115	-0,00694852	
28,8115	-0,00694852	
28,8409	-0,0317308	
28,8409	-0,0317308	
28,8704	-0,00866211	
28,8704	-0,00866211	
28,8999	-0,00327221	
28,8999	-0,00327221	
28,9299	0,0281111	
28,9299	0,0281111	
28,9588	-0,0141857	
28,9588	-0,0141857	
28,9884	0,00447466	
28,9884	0,00447466	
29,0184	0,0116339	
29,0184	0,0116339	
29,0477	0,00802477	
29,0477	0,00802477	
29,0773	0,0227962	
29,0773	0,0227962	
29,1068	0,0309755	
29,1068	0,0309755	
29,1364	0,0562215	
29,1364	0,0562215	
29,1656	0,0341496	
29,1656	0,0341496	
29,1951	0,063219	
29,1951	0,063219	
29,2249	0,0239414	
29,2249	0,0239414	
29,2545	0,0826923	
29,2545	0,0826923	
29,2845	0,0762883	
29,2845	0,0762883	
29,3139	0,046521	
29,3139	0,046521	
29,3437	0,0622394	
29,3437	0,0622394	
29,373	0,0620881	
29,373	0,0620881	
29,4026	0,0996671	
29,4026	0,0996671	
29,4322	0,0603445	
29,4322	0,0603445	
29,4616	0,0295061	
29,4616	0,0295061	
29,4911	0,068682	
29,4911	0,068682	
29,5202	0,0533597	
29,5202	0,0533597	
29,5497	0,00942206	
29,5497	0,00942206	
29,5798	0,0307873	
29,5798	0,0307873	
29,609	0,0321451	
29,609	0,0321451	
29,6389	-0,012673	
29,6389	-0,012673	
29,6682	-0,0321254	
29,6682	-0,0321254	
29,6977	0,025341	
29,6977	0,025341	
29,7278	-0,0398403	
29,7278	-0,0398403	
29,7564	0,00608292	
29,7564	0,00608292	
29,7867	-0,00540873	
29,7867	-0,00540873	
29,8164	-0,0494266	
29,8164	-0,0494266	
29,846	-0,023969	
29,846	-0,023969	
29,8754	-0,0198342	
29,8754	-0,0198342	
29,9051	-0,00625623	
29,9051	-0,00625623	
29,9347	-0,00390938	
29,9347	-0,00390938	
29,9643	-0,000872202	
29,9643	-0,000872202	
29,9933	-0,0321808	
29,9933	-0,0321808	
30,0227	-0,00748689	
30,0227	-0,00748689	
30,0527	-0,0233722	
30,0527	-0,0233722	
30,0824	-0,0213078	
30,0824	-0,0213078	
30,112	0,0119134	
30,112	0,0119134	
30,1416	-0,0271532	
30,1416	-0,0271532	
30,171	0,0289126	
30,171	0,0289126	
30,2011	-0,0413283	
30,2011	-0,0413283	
30,2303	-0,0235418	
30,2303	-0,0235418	
30,26	-0,0171443	
30,26	-0,0171443	
30,2896	-0,000813833	
30,2896	-0,000813833	
30,3188	-0,00531188	
30,3188	-0,00531188	
30,3487	-0,00209927	
30,3487	-0,00209927	
30,379	-0,0255671	
30,379	-0,0255671	
30,408	0,00603792	
30,408	0,00603792	
30,4375	-0,00858091	
30,4375	-0,00858091	
30,4672	0,00686292	
30,4672	0,00686292	
30,4969	0,0269809	
30,4969	0,0269809	
30,5261	-0,0382412	
30,5261	-0,0382412	
30,5554	-0,00265818	
30,5554	-0,00265818	
30,5849	-0,0133053	
30,5849	-0,0133053	
30,6143	-0,0266628	
30,6143	-0,0266628	
30,6447	0,00244802	
30,6447	0,00244802	
30,674	-0,0146872	
30,674	-0,0146872	
30,7034	-0,00838167	
30,7034	-0,00838167	
30,7331	-0,0066508	
30,7331	-0,0066508	
30,7632	-0,00367623	
30,7632	-0,00367623	
30,7923	-0,0295862	
30,7923	-0,0295862	
30,8214	-0,000400027	
30,8214	-0,000400027	
30,8515	-0,0390469	
30,8515	-0,0390469	
30,8808	-0,0305605	
30,8808	-0,0305605	
30,9104	0,0166658	
30,9104	0,0166658	
30,9401	-0,0219671	
30,9401	-0,0219671	
30,9696	-0,0173018	
30,9696	-0,0173018	
30,9992	-0,0447238	
30,9992	-0,0447238	
31,0289	0,00290683	
31,0289	0,00290683	
31,0585	-0,044206	
31,0585	-0,044206	
31,0878	-0,0135971	
31,0878	-0,0135971	
31,1175	0,0130599	
31,1175	0,0130599	
31,1469	-0,0276694	
31,1469	-0,0276694	
31,1762	-0,0135952	
31,1762	-0,0135952	
31,2058	0,00978597	
31,2058	0,00978597	
31,2351	0,0169625	
31,2351	0,0169625	
31,2649	-0,0159965	
31,2649	-0,0159965	
31,2945	0,0372954	
31,2945	0,0372954	
31,3243	0,00148867	
31,3243	0,00148867	
31,354	-0,0245318	
31,354	-0,0245318	
31,3833	0,00627955	
31,3833	0,00627955	
31,4125	-0,0408541	
31,4125	-0,0408541	
31,4422	0,0417667	
31,4422	0,0417667	
31,4719	-0,0114466	
31,4719	-0,0114466	
31,5013	-0,00870254	
31,5013	-0,00870254	
31,5308	0,0371835	
31,5308	0,0371835	
31,5608	-0,00919754	
31,5608	-0,00919754	
31,5904	-0,022616	
31,5904	-0,022616	
31,6197	-0,0185722	
31,6197	-0,0185722	
31,6488	-0,00872765	
31,6488	-0,00872765	
31,6783	-0,017741	
31,6783	-0,017741	
31,7079	-0,00426482	
31,7079	-0,00426482	
31,7373	0,00959749	
31,7373	0,00959749	
31,7678	-0,0454383	
31,7678	-0,0454383	
31,797	-0,0123166	
31,797	-0,0123166	
31,8264	0,0108356	
31,8264	0,0108356	
31,856	-0,035234	
31,856	-0,035234	
31,8859	-0,0356423	
31,8859	-0,0356423	
31,9155	-0,0234303	
31,9155	-0,0234303	
31,9448	0,0155929	
31,9448	0,0155929	
31,9745	0,00191324	
31,9745	0,00191324	
32,004	-0,00891026	
32,004	-0,00891026	
32,0333	-0,0213906	
32,0333	-0,0213906	
32,0631	-0,010469	
32,0631	-0,010469	
32,0926	-0,0388692	
32,0926	-0,0388692	
32,1223	0,0132839	
32,1223	0,0132839	
32,1516	0,0301094	
32,1516	0,0301094	
32,1816	-0,0561499	
32,1816	-0,0561499	
32,211	-0,0134872	
32,211	-0,0134872	
32,2404	-0,0250324	
32,2404	-0,0250324	
32,2697	-0,0100493	
32,2697	-0,0100493	
32,2991	0,00605553	
32,2991	0,00605553	
32,3286	-0,0133268	
32,3286	-0,0133268	
32,3581	-0,0347009	
32,3581	-0,0347009	
32,3878	0,0203062	
32,3878	0,0203062	
32,4176	-0,00667004	
32,4176	-0,00667004	
32,4467	-0,0365201	
32,4467	-0,0365201	
32,4766	-0,00723939	
32,4766	-0,00723939	
32,5062	-0,0179321	
32,5062	-0,0179321	
32,5354	-0,0260648	
32,5354	-0,0260648	
32,565	-0,0355956	
32,565	-0,0355956	
32,5944	-0,00499754	
32,5944	-0,00499754	
32,6241	-0,0377439	
32,6241	-0,0377439	
32,6531	-0,00911994	
32,6531	-0,00911994	
32,6832	-0,0377478	
32,6832	-0,0377478	
32,7126	-0,0291323	
32,7126	-0,0291323	
32,7421	0,0246523	
32,7421	0,0246523	
32,7719	-0,00670656	
32,7719	-0,00670656	
32,8009	-0,012163	
32,8009	-0,012163	
32,8309	-0,0550774	
32,8309	-0,0550774	
32,8605	0,0197365	
32,8605	0,0197365	
32,8898	-0,0387978	
32,8898	-0,0387978	
32,9194	0,0268149	
32,9194	0,0268149	
32,9489	-0,0281344	
32,9489	-0,0281344	
32,9784	-0,039255	
32,9784	-0,039255	
33,0081	-0,016948	
33,0081	-0,016948	
33,0381	-0,00705482	
33,0381	-0,00705482	
33,0677	0,0230744	
33,0677	0,0230744	
33,0969	-0,0223659	
33,0969	-0,0223659	
33,127	-0,0519584	
33,127	-0,0519584	
33,1566	-0,0509061	
33,1566	-0,0509061	
33,1858	0,00854162	
33,1858	0,00854162	
33,2156	-0,00806048	
33,2156	-0,00806048	
33,245	-0,0021397	
33,245	-0,0021397	
33,2745	-0,0118656	
33,2745	-0,0118656	
33,3037	-0,00971928	
33,3037	-0,00971928	
33,3332	0,0063177	
33,3332	0,0063177	
33,3632	-0,0107057	
33,3632	-0,0107057	
33,3934	-0,00340688	
33,3934	-0,00340688	
33,4225	0,0138529	
33,4225	0,0138529	
33,4519	-0,0206781	
33,4519	-0,0206781	
33,4815	-0,00692113	
33,4815	-0,00692113	
33,5113	-0,015823	
33,5113	-0,015823	
33,5408	-0,0195965	
33,5408	-0,0195965	
33,5705	-0,0089233	
33,5705	-0,0089233	
33,5997	0,0174125	
33,5997	0,0174125	
33,6296	-0,0116957	
33,6296	-0,0116957	
33,6587	0,000855736	
33,6587	0,000855736	
33,6883	-0,0273094	
33,6883	-0,0273094	
33,7186	-0,00385851	
33,7186	-0,00385851	
33,7482	-0,0485032	
33,7482	-0,0485032	
33,7783	-0,0272827	
33,7783	-0,0272827	
33,8076	0,0220377	
33,8076	0,0220377	
33,8371	-0,0308217	
33,8371	-0,0308217	
33,8667	-0,0494416	
33,8667	-0,0494416	
33,8959	0,00760053	
33,8959	0,00760053	
33,9254	0,00431716	
33,9254	0,00431716	
33,955	-0,0304327	
33,955	-0,0304327	
33,9847	0,0329587	
33,9847	0,0329587	
34,0142	-0,00265101	
34,0142	-0,00265101	
34,0437	-0,0248605	
34,0437	-0,0248605	
34,0736	-0,0771072	
34,0736	-0,0771072	
34,1033	0,0199899	
34,1033	0,0199899	
34,1326	-0,00815048	
34,1326	-0,00815048	
34,162	0,0042702	
34,162	0,0042702	
34,1915	-0,0305732	
34,1915	-0,0305732	
34,2209	-0,00197112	
34,2209	-0,00197112	
34,2507	0,00682183	
34,2507	0,00682183	
34,2802	-0,0102361	
34,2802	-0,0102361	
34,3099	0,00332161	
34,3099	0,00332161	
34,3396	-0,0824378	
34,3396	-0,0824378	
34,3689	0,0109566	
34,3689	0,0109566	
34,3987	-0,0510708	
34,3987	-0,0510708	
34,428	-0,0350752	
34,428	-0,0350752	
34,4579	-0,00478949	
34,4579	-0,00478949	
34,4871	-0,00981059	
34,4871	-0,00981059	
34,5162	-0,00597808	
34,5162	-0,00597808	
34,546	-0,0506152	
34,546	-0,0506152	
34,5755	-0,0381499	
34,5755	-0,0381499	
34,6055	0,0366954	
34,6055	0,0366954	
34,6352	0,0329741	
34,6352	0,0329741	
34,6646	-0,037606	
34,6646	-0,037606	
34,6943	-0,0624346	
34,6943	-0,0624346	
34,7234	-0,00550754	
34,7234	-0,00550754	
34,7526	-0,0342665	
34,7526	-0,0342665	
34,7825	-0,0273199	
34,7825	-0,0273199	
34,8121	-0,016886	
34,8121	-0,016886	
34,8418	-0,00526786	
34,8418	-0,00526786	
34,8708	0,0754453	
34,8708	0,0754453	
34,9006	-0,0267202	
34,9006	-0,0267202	
34,9306	-0,0585414	
34,9306	-0,0585414	
34,9602	0,0146962	
34,9602	0,0146962	
34,9892	-0,0333584	
34,9892	-0,0333584	
35,0185	0,0368046	
35,0185	0,0368046	
35,0486	0,0119303	
35,0486	0,0119303	
35,0781	-0,0398798	
35,0781	-0,0398798	
35,1074	-0,0204459	
35,1074	-0,0204459	
35,1374	-0,0159185	
35,1374	-0,0159185	
35,167	0,0077864	
35,167	0,0077864	
35,196	-0,0287886	
35,196	-0,0287886	
35,2262	-0,00329536	
35,2262	-0,00329536	
35,2552	-0,00926341	
35,2552	-0,00926341	
35,2853	-0,0295086	
35,2853	-0,0295086	
35,3148	-0,0250966	
35,3148	-0,0250966	
35,3443	0,00480759	
35,3443	0,00480759	
35,3735	-0,0265588	
35,3735	-0,0265588	
35,403	-0,00388101	
35,403	-0,00388101	
35,4329	-0,0324919	
35,4329	-0,0324919	
35,4627	-0,0137501	
35,4627	-0,0137501	
35,4921	-0,0151783	
35,4921	-0,0151783	
35,5219	-0,0260925	
35,5219	-0,0260925	
35,5509	0,00454868	
35,5509	0,00454868	
35,5807	-0,00523852	
35,5807	-0,00523852	
35,61	-0,0239941	
35,61	-0,0239941	
35,6396	-0,0147084	
35,6396	-0,0147084	
35,6692	5,48647E-5	
35,6692	5,48647E-5	
35,6988	-0,0339238	
35,6988	-0,0339238	
35,728	0,000551822	
35,728	0,000551822	
35,7573	0,0557477	
35,7573	0,0557477	
35,7868	-0,013286	
35,7868	-0,013286	
35,8167	-0,0584241	
35,8167	-0,0584241	
35,8462	-0,0636473	
35,8462	-0,0636473	
35,8759	-0,00703591	
35,8759	-0,00703591	
35,9058	-0,0265659	
35,9058	-0,0265659	
35,9354	0,00540824	
35,9354	0,00540824	
35,9644	0,00245487	
35,9644	0,00245487	
35,9944	-0,00816059	
35,9944	-0,00816059	
36,0238	0,0358019	
36,0238	0,0358019	
36,0531	-0,0772377	
36,0531	-0,0772377	
36,0828	-0,00254992	
36,0828	-0,00254992	
36,1117	-0,0127656	
36,1117	-0,0127656	
36,1421	-0,0182321	
36,1421	-0,0182321	
36,1716	-0,0169359	
36,1716	-0,0169359	
36,2004	0,0257969	
36,2004	0,0257969	
36,2305	-0,0379751	
36,2305	-0,0379751	
36,2598	0,0171617	
36,2598	0,0171617	
36,2896	-0,0108182	
36,2896	-0,0108182	
36,3191	-0,0234593	
36,3191	-0,0234593	
36,3487	0,00181443	
36,3487	0,00181443	
36,379	-0,0156136	
36,379	-0,0156136	
36,408	0,0101013	
36,408	0,0101013	
36,4382	0,0311193	
36,4382	0,0311193	
36,4674	0,0138934	
36,4674	0,0138934	
36,4974	-0,0435049	
36,4974	-0,0435049	
36,5261	0,024218	
36,5261	0,024218	
36,556	0,00767455	
36,556	0,00767455	
36,5859	-0,0131549	
36,5859	-0,0131549	
36,6154	-0,0399995	
36,6154	-0,0399995	
36,6445	-0,00923015	
36,6445	-0,00923015	
36,6739	-0,0136265	
36,6739	-0,0136265	
36,7037	0,0436652	
36,7037	0,0436652	
36,7339	-0,0213785	
36,7339	-0,0213785	
36,763	0,0429249	
36,763	0,0429249	
36,7925	-0,0425067	
36,7925	-0,0425067	
36,8221	0,00521096	
36,8221	0,00521096	
36,8514	-0,0510225	
36,8514	-0,0510225	
36,8812	-0,015298	
36,8812	-0,015298	
36,911	0,0138484	
36,911	0,0138484	
36,9405	-0,0423629	
36,9405	-0,0423629	
36,9702	0,00504205	
36,9702	0,00504205	
36,9996	-0,0253875	
36,9996	-0,0253875	
37,0288	0,00947684	
37,0288	0,00947684	
37,0584	0,00808118	
37,0584	0,00808118	
37,0878	0,00218519	
37,0878	0,00218519	
37,1178	-0,0020572	
37,1178	-0,0020572	
37,1474	-0,057001	
37,1474	-0,057001	
37,1765	0,0117438	
37,1765	0,0117438	
37,2064	0,0283459	
37,2064	0,0283459	
37,236	0,0567041	
37,236	0,0567041	
37,2656	-0,0351375	
37,2656	-0,0351375	
37,295	-0,000590463	
37,295	-0,000590463	
37,3245	-0,00881048	
37,3245	-0,00881048	
37,3538	-0,0209739	
37,3538	-0,0209739	
37,3834	0,0392539	
37,3834	0,0392539	
37,4135	0,0358211	
37,4135	0,0358211	
37,4426	0,0130462	
37,4426	0,0130462	
37,4721	0,0235743	
37,4721	0,0235743	
37,5011	0,00849532	
37,5011	0,00849532	
37,5309	0,00407129	
37,5309	0,00407129	
37,5602	0,0278105	
37,5602	0,0278105	
37,5898	-0,0249505	
37,5898	-0,0249505	
37,6196	0,0679737	
37,6196	0,0679737	
37,6496	0,00595868	
37,6496	0,00595868	
37,6793	0,0204865	
37,6793	0,0204865	
37,709	0,00494879	
37,709	0,00494879	
37,7384	-0,00583591	
37,7384	-0,00583591	
37,7679	0,00486824	
37,7679	0,00486824	
37,7972	-0,009417	
37,7972	-0,009417	
37,8272	-0,0207733	
37,8272	-0,0207733	
37,8563	-0,0228596	
37,8563	-0,0228596	
37,8852	-0,0289291	
37,8852	-0,0289291	
37,9149	0,00285074	
37,9149	0,00285074	
37,945	-0,0340989	
37,945	-0,0340989	
37,9746	0,02285	
37,9746	0,02285	
38,0043	-0,0487627	
38,0043	-0,0487627	
38,0335	0,00874412	
38,0335	0,00874412	
38,0635	-0,00904494	
38,0635	-0,00904494	
38,0925	-0,0340549	
38,0925	-0,0340549	
38,1224	-0,0332299	
38,1224	-0,0332299	
38,1511	0,0174996	
38,1511	0,0174996	
38,1809	-0,00947635	
38,1809	-0,00947635	
38,2104	0,0128254	
38,2104	0,0128254	
38,2408	0,019474	
38,2408	0,019474	
38,2704	0,0107841	
38,2704	0,0107841	
38,2991	0,00678173	
38,2991	0,00678173	
38,3289	-0,00655852	
38,3289	-0,00655852	
38,3581	-0,0147224	
38,3581	-0,0147224	
38,3877	0,0238107	
38,3877	0,0238107	
38,4176	0,0253717	
38,4176	0,0253717	
38,447	0,0262025	
38,447	0,0262025	
38,4767	0,0855994	
38,4767	0,0855994	
38,5064	0,0528762	
38,5064	0,0528762	
38,5361	0,0266026	
38,5361	0,0266026	
38,5656	0,0288986	
38,5656	0,0288986	
38,595	0,0208922	
38,595	0,0208922	
38,6247	0,0432422	
38,6247	0,0432422	
38,6544	0,0134858	
38,6544	0,0134858	
38,6838	0,013835	
38,6838	0,013835	
38,7129	0,00591955	
38,7129	0,00591955	
38,7421	-0,00792189	
38,7421	-0,00792189	
38,7723	0,00402368	
38,7723	0,00402368	
38,8019	0,011854	
38,8019	0,011854	
38,8316	0,0221903	
38,8316	0,0221903	
38,861	0,000110952	
38,861	0,000110952	
38,8905	-0,0472014	
38,8905	-0,0472014	
38,92	-0,0271979	
38,92	-0,0271979	
38,95	0,0116652	
38,95	0,0116652	
38,9791	-0,0156065	
38,9791	-0,0156065	
39,0087	0,00607575	
39,0087	0,00607575	
39,0376	-0,0193079	
39,0376	-0,0193079	
39,0675	-0,0142878	
39,0675	-0,0142878	
39,0975	0,0174422	
39,0975	0,0174422	
39,1267	-0,000810898	
39,1267	-0,000810898	
39,156	0,00334639	
39,156	0,00334639	
39,1854	0,0167799	
39,1854	0,0167799	
39,2147	0,0168983	
39,2147	0,0168983	
39,2447	0,0119786	
39,2447	0,0119786	
39,2739	0,0197013	
39,2739	0,0197013	
39,3037	0,0291226	
39,3037	0,0291226	
39,3331	0,0666058	
39,3331	0,0666058	
39,3622	0,0596118	
39,3622	0,0596118	
39,3919	0,022775	
39,3919	0,022775	
39,4218	0,0706049	
39,4218	0,0706049	
39,4509	0,0675403	
39,4509	0,0675403	
39,4807	0,0891854	
39,4807	0,0891854	
39,51	0,0973656	
39,51	0,0973656	
39,5394	0,0817864	
39,5394	0,0817864	
39,5688	0,0687661	
39,5688	0,0687661	
39,5992	0,0635529	
39,5992	0,0635529	
39,6283	0,0420165	
39,6283	0,0420165	
39,6583	0,0400495	
39,6583	0,0400495	
39,6879	0,109707	
39,6879	0,109707	
39,7178	0,0566943	
39,7178	0,0566943	
39,7472	0,0485891	
39,7472	0,0485891	
39,7765	0,0125192	
39,7765	0,0125192	
39,806	-0,0220213	
39,806	-0,0220213	
39,8355	0,0239421	
39,8355	0,0239421	
39,8651	0,079572	
39,8651	0,079572	
39,8949	-0,0266458	
39,8949	-0,0266458	
39,9245	-0,027867	
39,9245	-0,027867	
39,954	-0,00589721	
39,954	-0,00589721	
39,9836	-0,035761	
39,9836	-0,035761	
40,0123	-0,0121092	
40,0123	-0,0121092	
40,0422	0,0266561	
40,0422	0,0266561	
40,0721	-0,0171828	
40,0721	-0,0171828	
40,1013	0,0333774	
40,1013	0,0333774	
40,1314	-0,00219547	
40,1314	-0,00219547	
40,161	0,0129288	
40,161	0,0129288	
40,1905	-0,0212494	
40,1905	-0,0212494	
40,2201	0,0117034	
40,2201	0,0117034	
40,2497	-0,0206269	
40,2497	-0,0206269	
40,279	0,00846238	
40,279	0,00846238	
40,3087	0,0310087	
40,3087	0,0310087	
40,338	0,00642629	
40,338	0,00642629	
40,3677	0,0256192	
40,3677	0,0256192	
40,3982	0,0611454	
40,3982	0,0611454	
40,4279	0,0629096	
40,4279	0,0629096	
40,4572	0,0338701	
40,4572	0,0338701	
40,4867	0,0523479	
40,4867	0,0523479	
40,5164	0,042982	
40,5164	0,042982	
40,5459	0,0317486	
40,5459	0,0317486	
40,5748	0,0747557	
40,5748	0,0747557	
40,605	0,0409919	
40,605	0,0409919	
40,6343	0,0392405	
40,6343	0,0392405	
40,6638	0,0310886	
40,6638	0,0310886	
40,6932	0,09241	
40,6932	0,09241	
40,7231	0,0273702	
40,7231	0,0273702	
40,7527	0,0292208	
40,7527	0,0292208	
40,7818	0,0420644	
40,7818	0,0420644	
40,8115	0,013896	
40,8115	0,013896	
40,8407	-0,00846026	
40,8407	-0,00846026	
40,8697	0,0157058	
40,8697	0,0157058	
40,8999	0,00679086	
40,8999	0,00679086	
40,9296	-0,0365824	
40,9296	-0,0365824	
40,9589	-0,0346356	
40,9589	-0,0346356	
40,9887	-0,0194266	
40,9887	-0,0194266	
41,0185	-0,000674919	
41,0185	-0,000674919	
41,0481	-0,0162538	
41,0481	-0,0162538	
41,0777	-0,00411743	
41,0777	-0,00411743	
41,1072	-0,0366812	
41,1072	-0,0366812	
41,1368	-0,0136304	
41,1368	-0,0136304	
41,1664	0,0315575	
41,1664	0,0315575	
41,196	0,00918564	
41,196	0,00918564	
41,2246	-0,00128568	
41,2246	-0,00128568	
41,2543	-0,0027371	
41,2543	-0,0027371	
41,2841	-0,0294544	
41,2841	-0,0294544	
41,3135	0,0511221	
41,3135	0,0511221	
41,3434	0,0201236	
41,3434	0,0201236	
41,3732	0,00088704	
41,3732	0,00088704	
41,4025	0,0507315	
41,4025	0,0507315	
41,432	0,0268547	
41,432	0,0268547	
41,4613	0,0276217	
41,4613	0,0276217	
41,4911	0,00974945	
41,4911	0,00974945	
41,5202	0,0665503	
41,5202	0,0665503	
41,5505	0,032	
41,5505	0,032	
41,5799	0,0413056	
41,5799	0,0413056	
41,6093	0,0453175	
41,6093	0,0453175	
41,6388	0,0211756	
41,6388	0,0211756	
41,6679	0,0597328	
41,6679	0,0597328	
41,698	0,0643072	
41,698	0,0643072	
41,7273	0,016972	
41,7273	0,016972	
41,7568	0,0364847	
41,7568	0,0364847	
41,7866	0,018112	
41,7866	0,018112	
41,8165	0,020616	
41,8165	0,020616	
41,8457	0,0168226	
41,8457	0,0168226	
41,875	0,0211341	
41,875	0,0211341	
41,905	-0,018329	
41,905	-0,018329	
41,9343	-0,0192821	
41,9343	-0,0192821	
41,9636	-0,00517819	
41,9636	-0,00517819	
41,9933	0,0257401	
41,9933	0,0257401	
42,0226	0,00142085	
42,0226	0,00142085	
42,0522	-0,0206338	
42,0522	-0,0206338	
42,082	0,0112896	
42,082	0,0112896	
42,111	0,0095763	
42,111	0,0095763	
42,141	-0,0167263	
42,141	-0,0167263	
42,1709	-0,00934689	
42,1709	-0,00934689	
42,2001	-0,0110093	
42,2001	-0,0110093	
42,2295	0,0219869	
42,2295	0,0219869	
42,2587	0,0100677	
42,2587	0,0100677	
42,2884	0,0434858	
42,2884	0,0434858	
42,3182	0,0311741	
42,3182	0,0311741	
42,3477	0,0466854	
42,3477	0,0466854	
42,3771	0,0382166	
42,3771	0,0382166	
42,4067	0,0586456	
42,4067	0,0586456	
42,4368	0,0646466	
42,4368	0,0646466	
42,4657	0,0546067	
42,4657	0,0546067	
42,4948	0,0693188	
42,4948	0,0693188	
42,5245	0,0798726	
42,5245	0,0798726	
42,5539	0,0866738	
42,5539	0,0866738	
42,5835	0,0972524	
42,5835	0,0972524	
42,6133	0,130729	
42,6133	0,130729	
42,643	0,0599024	
42,643	0,0599024	
42,6724	0,0651208	
42,6724	0,0651208	
42,7021	0,116899	
42,7021	0,116899	
42,7316	0,06595	
42,7316	0,06595	
42,7613	0,0773888	
42,7613	0,0773888	
42,7908	0,112674	
42,7908	0,112674	
42,8203	0,0904773	
42,8203	0,0904773	
42,8501	0,0584797	
42,8501	0,0584797	
42,8789	0,0452734	
42,8789	0,0452734	
42,9085	0,0315794	
42,9085	0,0315794	
42,9386	0,0281802	
42,9386	0,0281802	
42,9679	-0,0486858	
42,9679	-0,0486858	
42,9977	0,00273204	
42,9977	0,00273204	
43,0272	0,0197121	
43,0272	0,0197121	
43,0572	0,0184054	
43,0572	0,0184054	
43,0864	0,0730316	
43,0864	0,0730316	
43,116	0,0453977	
43,116	0,0453977	
43,1458	0,115042	
43,1458	0,115042	
43,175	0,106178	
43,175	0,106178	
43,2051	0,0878337	
43,2051	0,0878337	
43,2344	0,188099	
43,2344	0,188099	
43,2648	0,223994	
43,2648	0,223994	
43,2935	0,229186	
43,2935	0,229186	
43,3228	0,316282	
43,3228	0,316282	
43,3518	0,413881	
43,3518	0,413881	
43,3819	0,458621	
43,3819	0,458621	
43,412	0,536752	
43,412	0,536752	
43,4414	0,638237	
43,4414	0,638237	
43,471	0,717408	
43,471	0,717408	
43,5003	0,865381	
43,5003	0,865381	
43,5301	0,822654	
43,5301	0,822654	
43,5598	0,861417	
43,5598	0,861417	
43,5895	0,938791	
43,5895	0,938791	
43,6187	0,921072	
43,6187	0,921072	
43,6489	0,937395	
43,6489	0,937395	
43,6779	0,912335	
43,6779	0,912335	
43,7072	0,91171	
43,7072	0,91171	
43,7369	0,879592	
43,7369	0,879592	
43,7663	0,896885	
43,7663	0,896885	
43,7963	0,769182	
43,7963	0,769182	
43,8258	0,70157	
43,8258	0,70157	
43,8551	0,59575	
43,8551	0,59575	
43,8843	0,482572	
43,8843	0,482572	
43,9145	0,344105	
43,9145	0,344105	
43,9438	0,193854	
43,9438	0,193854	
43,9729	0,0136413	
43,9729	0,0136413	
44,0026	-0,0456026	
44,0026	-0,0456026	
44,0323	-0,0356031	
44,0323	-0,0356031	
44,0616	-0,0098207	
44,0616	-0,0098207	
44,0912	-0,000506658	
44,0912	-0,000506658	
44,1213	-0,0589054	
44,1213	-0,0589054	
44,1503	-0,0324326	
44,1503	-0,0324326	
44,1793	0,0337759	
44,1793	0,0337759	
44,2093	-0,0528098	
44,2093	-0,0528098	
44,2385	-0,0181095	
44,2385	-0,0181095	
44,2685	0,00209911	
44,2685	0,00209911	
44,2982	-0,0149426	
44,2982	-0,0149426	
44,3278	-0,00537906	
44,3278	-0,00537906	
44,3571	0,0139511	
44,3571	0,0139511	
44,3865	0,013417	
44,3865	0,013417	
44,4164	0,0547968	
44,4164	0,0547968	
44,4459	0,0104492	
44,4459	0,0104492	
44,4757	-0,0462704	
44,4757	-0,0462704	
44,5049	0,0135386	
44,5049	0,0135386	
44,5346	0,0173698	
44,5346	0,0173698	
44,5639	0,0502316	
44,5639	0,0502316	
44,5936	0,0548317	
44,5936	0,0548317	
44,6229	0,0523378	
44,6229	0,0523378	
44,6524	0,0137173	
44,6524	0,0137173	
44,6824	0,0324546	
44,6824	0,0324546	
44,7119	0,0329242	
44,7119	0,0329242	
44,7413	0,0226743	
44,7413	0,0226743	
44,7708	0,0718845	
44,7708	0,0718845	
44,8001	0,0280736	
44,8001	0,0280736	
44,83	0,0168692	
44,83	0,0168692	
44,859	-0,00742461	
44,859	-0,00742461	
44,8887	0,0157596	
44,8887	0,0157596	
44,9185	0,0162833	
44,9185	0,0162833	
44,9486	-0,00661428	
44,9486	-0,00661428	
44,9772	-0,0150873	
44,9772	-0,0150873	
45,0068	-0,0368459	
45,0068	-0,0368459	
45,0363	-0,0158654	
45,0363	-0,0158654	
45,066	-0,0133111	
45,066	-0,0133111	
45,0955	-0,00332112	
45,0955	-0,00332112	
45,1251	-0,00413406	
45,1251	-0,00413406	
45,155	-0,0594092	
45,155	-0,0594092	
45,1844	-0,00484069	
45,1844	-0,00484069	
45,2135	-0,0133036	
45,2135	-0,0133036	
45,2436	0,001834	
45,2436	0,001834	
45,2728	-0,063091	
45,2728	-0,063091	
45,3027	-0,0071745	
45,3027	-0,0071745	
45,3325	-0,0303375	
45,3325	-0,0303375	
45,3613	0,00136476	
45,3613	0,00136476	
45,3911	0,0341529	
45,3911	0,0341529	
45,4206	-0,0307986	
45,4206	-0,0307986	
45,4505	-0,0367135	
45,4505	-0,0367135	
45,4799	-0,0342293	
45,4799	-0,0342293	
45,5092	-0,000236658	
45,5092	-0,000236658	
45,5383	-0,0210792	
45,5383	-0,0210792	
45,5686	-0,0291104	
45,5686	-0,0291104	
45,5977	-0,0179028	
45,5977	-0,0179028	
45,6276	0,0265133	
45,6276	0,0265133	
45,6569	-0,0149559	
45,6569	-0,0149559	
45,6864	0,0108334	
45,6864	0,0108334	
45,716	-0,0331004	
45,716	-0,0331004	
45,746	-0,0667347	
45,746	-0,0667347	
45,7748	0,0244834	
45,7748	0,0244834	
45,8049	0,0156174	
45,8049	0,0156174	
45,8333	-0,0250806	
45,8333	-0,0250806	
45,8635	-0,00364492	
45,8635	-0,00364492	
45,8924	-0,0175131	
45,8924	-0,0175131	
45,9224	-0,0221338	
45,9224	-0,0221338	
45,9522	0,0173065	
45,9522	0,0173065	
45,9818	0,00702433	
45,9818	0,00702433	
46,0113	-0,0230302	
46,0113	-0,0230302	
46,041	-0,018615	
46,041	-0,018615	
46,0706	-0,0233576	
46,0706	-0,0233576	
46,0998	-0,0219417	
46,0998	-0,0219417	
46,1294	-0,00747287	
46,1294	-0,00747287	
46,1592	-0,0292356	
46,1592	-0,0292356	
46,1886	-0,00659602	
46,1886	-0,00659602	
46,2177	-0,00889591	
46,2177	-0,00889591	
46,2475	0,00204302	
46,2475	0,00204302	
46,2771	-0,017426	
46,2771	-0,017426	
46,3067	-0,00368634	
46,3067	-0,00368634	
46,3368	-0,0229519	
46,3368	-0,0229519	
46,3659	-0,0141987	
46,3659	-0,0141987	
46,3955	-0,00643134	
46,3955	-0,00643134	
46,4255	-0,0486799	
46,4255	-0,0486799	
46,4552	-0,0342913	
46,4552	-0,0342913	
46,4842	-0,0217121	
46,4842	-0,0217121	
46,5137	-0,0152158	
46,5137	-0,0152158	
46,5432	-0,0126671	
46,5432	-0,0126671	
46,5732	-0,0164351	
46,5732	-0,0164351	
46,6026	-0,0217774	
46,6026	-0,0217774	
46,6321	-0,0155005	
46,6321	-0,0155005	
46,6615	-0,00226884	
46,6615	-0,00226884	
46,6905	-0,00789809	
46,6905	-0,00789809	
46,721	-0,0228707	
46,721	-0,0228707	
46,7505	-0,0428296	
46,7505	-0,0428296	
46,7801	-0,0549255	
46,7801	-0,0549255	
46,8096	-0,015176	
46,8096	-0,015176	
46,839	0,00929847	
46,839	0,00929847	
46,8687	-0,0099495	
46,8687	-0,0099495	
46,8984	-0,00865983	
46,8984	-0,00865983	
46,9282	-0,0116778	
46,9282	-0,0116778	
46,9578	0,00447726	
46,9578	0,00447726	
46,987	-0,0194054	
46,987	-0,0194054	
47,0164	-0,0061571	
47,0164	-0,0061571	
47,046	-0,0408633	
47,046	-0,0408633	
47,0759	-0,0265148	
47,0759	-0,0265148	
47,1061	-0,0214963	
47,1061	-0,0214963	
47,1357	-0,06624	
47,1357	-0,06624	
47,165	0,00361542	
47,165	0,00361542	
47,1947	-0,0270495	
47,1947	-0,0270495	
47,2242	-0,00244525	
47,2242	-0,00244525	
47,2537	-0,0285978	
47,2537	-0,0285978	
47,2829	-0,0082995	
47,2829	-0,0082995	
47,3127	-0,00334753	
47,3127	-0,00334753	
47,3423	-0,0146184	
47,3423	-0,0146184	
47,3714	0,0127664	
47,3714	0,0127664	
47,4008	-0,0540571	
47,4008	-0,0540571	
47,4306	0,018592	
47,4306	0,018592	
47,46	-0,0339861	
47,46	-0,0339861	
47,4893	-0,0157229	
47,4893	-0,0157229	
47,5187	-0,00236568	
47,5187	-0,00236568	
47,5483	-0,0174459	
47,5483	-0,0174459	
47,5781	0,00447172	
47,5781	0,00447172	
47,6076	-0,00333971	
47,6076	-0,00333971	
47,6374	-0,0146174	
47,6374	-0,0146174	
47,6668	-0,0161944	
47,6668	-0,0161944	
47,697	-0,0081733	
47,697	-0,0081733	
47,7259	0,0139198	
47,7259	0,0139198	
47,7556	-0,00308732	
47,7556	-0,00308732	
47,7851	-0,0278243	
47,7851	-0,0278243	
47,8153	-0,0177218	
47,8153	-0,0177218	
47,8442	-0,0253386	
47,8442	-0,0253386	
47,8738	-0,00247786	
47,8738	-0,00247786	
47,9032	-0,0177019	
47,9032	-0,0177019	
47,9325	-0,00591319	
47,9325	-0,00591319	
47,9626	0,000625844	
47,9626	0,000625844	
47,9921	-0,017232	
47,9921	-0,017232	
48,0219	-0,0269905	
48,0219	-0,0269905	
48,0514	-0,0173784	
48,0514	-0,0173784	
48,0805	0,00240596	
48,0805	0,00240596	
48,1102	-0,0221768	
48,1102	-0,0221768	
48,1393	-0,00574591	
48,1393	-0,00574591	
48,1693	-0,0115845	
48,1693	-0,0115845	
48,1982	-0,0299983	
48,1982	-0,0299983	
48,2286	-0,0195006	
48,2286	-0,0195006	
48,2573	-0,0118115	
48,2573	-0,0118115	
48,2871	-0,0179973	
48,2871	-0,0179973	
48,3168	-0,0208138	
48,3168	-0,0208138	
48,3459	-0,0172425	
48,3459	-0,0172425	
48,3754	0,03593	
48,3754	0,03593	
48,4047	-0,0275618	
48,4047	-0,0275618	
48,4344	-0,0511093	
48,4344	-0,0511093	
48,4643	0,00443976	
48,4643	0,00443976	
48,4941	0,0136142	
48,4941	0,0136142	
48,5235	-0,0127398	
48,5235	-0,0127398	
48,5534	-0,00572308	
48,5534	-0,00572308	
48,5831	-0,0346937	
48,5831	-0,0346937	
48,612	-0,033899	
48,612	-0,033899	
48,6419	-0,0171926	
48,6419	-0,0171926	
48,6717	-0,00769982	
48,6717	-0,00769982	
48,7006	-0,0431302	
48,7006	-0,0431302	
48,7304	-0,0123374	
48,7304	-0,0123374	
48,7597	0,0055977	
48,7597	0,0055977	
48,789	-0,0276662	
48,789	-0,0276662	
48,8185	-0,0159573	
48,8185	-0,0159573	
48,8485	-0,0113579	
48,8485	-0,0113579	
48,8777	0,00320031	
48,8777	0,00320031	
48,9074	0,0548258	
48,9074	0,0548258	
48,9371	-0,025364	
48,9371	-0,025364	
48,9667	-0,0708457	
48,9667	-0,0708457	
48,9958	-0,00645971	
48,9958	-0,00645971	
49,0251	-0,0222397	
49,0251	-0,0222397	
49,0553	-0,0513626	
49,0553	-0,0513626	
49,0844	0,022804	
49,0844	0,022804	
49,1145	-0,0339593	
49,1145	-0,0339593	
49,1442	0,0268935	
49,1442	0,0268935	
49,1733	-0,0444704	
49,1733	-0,0444704	
49,2024	0,0286231	
49,2024	0,0286231	
49,2322	-0,0017947	
49,2322	-0,0017947	
49,2618	-0,0156238	
49,2618	-0,0156238	
49,2919	-0,0610438	
49,2919	-0,0610438	
49,3214	0,0154442	
49,3214	0,0154442	
49,3509	0,0301508	
49,3509	0,0301508	
49,3799	-0,0170807	
49,3799	-0,0170807	
49,4099	0,0282011	
49,4099	0,0282011	
49,4393	-0,0337689	
49,4393	-0,0337689	
49,4688	0,00483531	
49,4688	0,00483531	
49,4982	0,00795042	
49,4982	0,00795042	
49,5277	-0,0163806	
49,5277	-0,0163806	
49,557	-0,0790641	
49,557	-0,0790641	
49,5869	0,0107205	
49,5869	0,0107205	
49,6156	-0,0445298	
49,6156	-0,0445298	
49,6457	-0,0223816	
49,6457	-0,0223816	
49,6752	-0,0237088	
49,6752	-0,0237088	
49,7051	-0,0346229	
49,7051	-0,0346229	
49,7346	-0,00785928	
49,7346	-0,00785928	
49,764	-0,000113396	
49,764	-0,000113396	
49,7938	0,0108608	
49,7938	0,0108608	
49,8231	-0,0366952	
49,8231	-0,0366952	
49,8528	-0,0187382	
49,8528	-0,0187382	
49,8824	0,0164828	
49,8824	0,0164828	
49,912	0,0253769	
49,912	0,0253769	
49,9413	-0,0237642	
49,9413	-0,0237642	
49,9708	-0,0473981	
49,9708	-0,0473981	
50,0007	-0,0500612	
50,0007	-0,0500612	
50,0296	-0,00182405	
50,0296	-0,00182405	
50,0593	-0,021255	
50,0593	-0,021255	
50,0893	0,0518311	
50,0893	0,0518311	
50,1188	-0,0145327	
50,1188	-0,0145327	
50,1483	-0,0272462	
50,1483	-0,0272462	
50,178	-0,0317912	
50,178	-0,0317912	
50,2074	0,00920293	
50,2074	0,00920293	
50,2373	-0,0172271	
50,2373	-0,0172271	
50,2669	-0,0201746	
50,2669	-0,0201746	
50,2959	-0,0349718	
50,2959	-0,0349718	
50,3262	-0,00941994	
50,3262	-0,00941994	
50,3554	0,0500849	
50,3554	0,0500849	
50,3852	0,028054	
50,3852	0,028054	
50,415	-0,00132481	
50,415	-0,00132481	
50,4443	-0,0286451	
50,4443	-0,0286451	
50,4737	-0,0181901	
50,4737	-0,0181901	
50,5032	-0,0322073	
50,5032	-0,0322073	
50,5332	0,0356666	
50,5332	0,0356666	
50,5626	-0,0421957	
50,5626	-0,0421957	
50,592	-0,0320168	
50,592	-0,0320168	
50,6214	-0,0306893	
50,6214	-0,0306893	
50,6513	-0,0158386	
50,6513	-0,0158386	
50,6809	-0,0413468	
50,6809	-0,0413468	
50,7097	-0,00991461	
50,7097	-0,00991461	
50,7399	0,0168595	
50,7399	0,0168595	
50,7693	0,0226501	
50,7693	0,0226501	
50,7987	0,00337476	
50,7987	0,00337476	
50,8283	-0,0638146	
50,8283	-0,0638146	
50,8575	-0,00510808	
50,8575	-0,00510808	
50,8868	0,0124302	
50,8868	0,0124302	
50,9167	0,00797521	
50,9167	0,00797521	
50,946	0,0423517	
50,946	0,0423517	
50,9762	0,00252465	
50,9762	0,00252465	
51,0057	-0,0252838	
51,0057	-0,0252838	
51,0352	-0,0125996	
51,0352	-0,0125996	
51,0648	-0,0119129	
51,0648	-0,0119129	
51,0943	-0,0148134	
51,0943	-0,0148134	
51,1234	-0,0165026	
51,1234	-0,0165026	
51,1531	-0,0155742	
51,1531	-0,0155742	
51,1828	-0,0155331	
51,1828	-0,0155331	
51,2125	-0,016738	
51,2125	-0,016738	
51,2418	-0,00472786	
51,2418	-0,00472786	
51,2714	-0,0126811	
51,2714	-0,0126811	
51,3009	-0,0125954	
51,3009	-0,0125954	
51,3302	-0,023129	
51,3302	-0,023129	
51,3596	-0,0414052	
51,3596	-0,0414052	
51,3897	-0,00154949	
51,3897	-0,00154949	
51,4188	-0,0390088	
51,4188	-0,0390088	
51,4485	-0,00713895	
51,4485	-0,00713895	
51,478	-0,0189104	
51,478	-0,0189104	
51,5075	-0,0229597	
51,5075	-0,0229597	
51,5371	-0,000867963	
51,5371	-0,000867963	
51,5667	0,00394248	
51,5667	0,00394248	
51,5964	0,0137036	
51,5964	0,0137036	
51,6253	-0,00975385	
51,6253	-0,00975385	
51,655	0,00661705	
51,655	0,00661705	
51,6851	-0,0153821	
51,6851	-0,0153821	
51,7141	-0,00993255	
51,7141	-0,00993255	
51,7436	-0,0160676	
51,7436	-0,0160676	
51,7735	-0,0515974	
51,7735	-0,0515974	
51,8031	-0,00569276	
51,8031	-0,00569276	
51,8326	0,0319925	
51,8326	0,0319925	
51,8623	0,010715	
51,8623	0,010715	
51,8919	-0,0126299	
51,8919	-0,0126299	
51,9214	0,000590627	
51,9214	0,000590627	
51,9508	-0,00676884	
51,9508	-0,00676884	
51,9804	-0,0103561	
51,9804	-0,0103561	
52,0101	-0,072813	
52,0101	-0,072813	
52,0393	0,00328672	
52,0393	0,00328672	
52,0694	-0,0038559	
52,0694	-0,0038559	
52,0983	-0,008907	
52,0983	-0,008907	
52,1281	-0,0183397	
52,1281	-0,0183397	
52,1578	-0,0165061	
52,1578	-0,0165061	
52,1872	-0,0182178	
52,1872	-0,0182178	
52,2167	-0,0285727	
52,2167	-0,0285727	
52,2464	-0,00896374	
52,2464	-0,00896374	
52,2757	0,0230695	
52,2757	0,0230695	
52,3052	0,0127478	
52,3052	0,0127478	
52,3349	-0,0565513	
52,3349	-0,0565513	
52,3645	0,00149095	
52,3645	0,00149095	
52,3935	0,0223423	
52,3935	0,0223423	
52,4233	-0,0273802	
52,4233	-0,0273802	
52,4528	-0,00379264	
52,4528	-0,00379264	
52,4825	-0,028815	
52,4825	-0,028815	
52,5115	-0,0685514	
52,5115	-0,0685514	
52,5409	-0,0351114	
52,5409	-0,0351114	
52,5701	0,0259648	
52,5701	0,0259648	
52,6002	-0,0204531	
52,6002	-0,0204531	
52,6294	-0,00697363	
52,6294	-0,00697363	
52,6589	-0,00223297	
52,6589	-0,00223297	
52,6885	-0,0368113	
52,6885	-0,0368113	
52,7182	-0,00660091	
52,7182	-0,00660091	
52,7479	-0,0170266	
52,7479	-0,0170266	
52,7773	-0,0119523	
52,7773	-0,0119523	
52,8067	-0,0118891	
52,8067	-0,0118891	
52,8362	0,00419389	
52,8362	0,00419389	
52,8656	-0,0342261	
52,8656	-0,0342261	
52,8951	0,0158541	
52,8951	0,0158541	
52,9247	-0,0294792	
52,9247	-0,0294792	
52,9544	-0,00228253	
52,9544	-0,00228253	
52,9841	-0,0139962	
52,9841	-0,0139962	
53,0136	0,0231102	
53,0136	0,0231102	
53,0431	0,00290161	
53,0431	0,00290161	
53,0726	-0,0303655	
53,0726	-0,0303655	
53,1025	0,00875977	
53,1025	0,00875977	
53,1322	-0,0181989	
53,1322	-0,0181989	
53,1615	-0,0110011	
53,1615	-0,0110011	
53,1908	-0,031109	
53,1908	-0,031109	
53,2203	-0,0245041	
53,2203	-0,0245041	
53,2501	0,0078751	
53,2501	0,0078751	
53,2802	0,00594857	
53,2802	0,00594857	
53,3092	-0,0261958	
53,3092	-0,0261958	
53,3385	-0,0198603	
53,3385	-0,0198603	
53,368	-0,00788504	
53,368	-0,00788504	
53,3973	-0,0139043	
53,3973	-0,0139043	
53,4273	-0,022197	
53,4273	-0,022197	
53,4569	-0,00928461	
53,4569	-0,00928461	
53,4864	0,00689716	
53,4864	0,00689716	
53,5156	-0,0157861	
53,5156	-0,0157861	
53,5455	-0,01692	
53,5455	-0,01692	
53,575	-0,0199679	
53,575	-0,0199679	
53,6048	0,00892249	
53,6048	0,00892249	
53,6344	0,00478803	
53,6344	0,00478803	
53,664	-0,0155188	
53,664	-0,0155188	
53,6937	-0,0187001	
53,6937	-0,0187001	
53,7228	-0,00522188	
53,7228	-0,00522188	
53,7525	-0,046066	
53,7525	-0,046066	
53,7827	-0,00148394	
53,7827	-0,00148394	
53,812	-0,0352242	
53,812	-0,0352242	
53,8418	-0,0131712	
53,8418	-0,0131712	
53,8717	-0,00686047	
53,8717	-0,00686047	
53,9011	-0,016752	
53,9011	-0,016752	
53,9302	-0,0188817	
53,9302	-0,0188817	
53,9601	-2,66572E-5	
53,9601	-2,66572E-5	
53,9896	0,00671259	
53,9896	0,00671259	
54,0194	-0,035835	
54,0194	-0,035835	
54,0483	-0,00258547	
54,0483	-0,00258547	
54,0779	-0,00717939	
54,0779	-0,00717939	
54,1076	0,0022853	
54,1076	0,0022853	
54,1376	-0,0238428	
54,1376	-0,0238428	
54,1666	-0,0174048	
54,1666	-0,0174048	
54,1959	-0,02889	
54,1959	-0,02889	
54,2255	-0,013424	
54,2255	-0,013424	
54,2549	-0,0167305	
54,2549	-0,0167305	
54,2847	0,00222139	
54,2847	0,00222139	
54,3149	-0,0298549	
54,3149	-0,0298549	
54,3435	-0,00687352	
54,3435	-0,00687352	
54,3733	-0,0049258	
54,3733	-0,0049258	
54,4034	-0,0255322	
54,4034	-0,0255322	
54,433	-0,0159039	
54,433	-0,0159039	
54,4622	-0,0217888	
54,4622	-0,0217888	
54,4918	-0,0155582	
54,4918	-0,0155582	
54,5211	-0,0134699	
54,5211	-0,0134699	
54,5507	-0,0064395	
54,5507	-0,0064395	
54,5798	-0,010257	
54,5798	-0,010257	
54,6093	-0,0148222	
54,6093	-0,0148222	
54,6393	-0,0252561	
54,6393	-0,0252561	
54,6685	-0,0134298	
54,6685	-0,0134298	
54,6984	-0,0316366	
54,6984	-0,0316366	
54,7284	0,00139117	
54,7284	0,00139117	
54,7578	0,0246455	
54,7578	0,0246455	
54,7865	-0,040769	
54,7865	-0,040769	
54,8165	-0,00103949	
54,8165	-0,00103949	
54,8458	-0,0999167	
54,8458	-0,0999167	
54,8757	-0,00133264	
54,8757	-0,00133264	
54,9048	-0,0156678	
54,9048	-0,0156678	
54,9347	-0,0300971	
54,9347	-0,0300971	
54,9644	-0,00801156	
54,9644	-0,00801156	
54,9933	-0,0178451	
54,9933	-0,0178451	
55,023	-0,00547036	
55,023	-0,00547036	
55,0528	-0,0442598	
55,0528	-0,0442598	
55,0815	-0,00778167	
55,0815	-0,00778167	
55,1119	-0,00478004	
55,1119	-0,00478004	
55,1411	-0,00529362	
55,1411	-0,00529362	
55,171	0,0330047	
55,171	0,0330047	
55,2003	-0,0340477	
55,2003	-0,0340477	
55,2298	-0,00685689	
55,2298	-0,00685689	
55,2593	-0,0271284	
55,2593	-0,0271284	
55,2893	-0,0321372	
55,2893	-0,0321372	
55,3189	-0,0118617	
55,3189	-0,0118617	
55,3483	-0,0251357	
55,3483	-0,0251357	
55,3776	-0,00144383	
55,3776	-0,00144383	
55,4067	-0,0169477	
55,4067	-0,0169477	
55,437	-0,008502	
55,437	-0,008502	
55,4665	-0,00736493	
55,4665	-0,00736493	
55,496	-0,0195887	
55,496	-0,0195887	
55,5249	-0,00282318	
55,5249	-0,00282318	
55,5549	0,0721294	
55,5549	0,0721294	
55,5848	-0,00496101	
55,5848	-0,00496101	
55,6136	-0,00909352	
55,6136	-0,00909352	
55,6434	-0,0319793	
55,6434	-0,0319793	
55,6732	-0,00781917	
55,6732	-0,00781917	
55,7024	-0,0103177	
55,7024	-0,0103177	
55,7319	-0,0286529	
55,7319	-0,0286529	
55,7615	-0,00897646	
55,7615	-0,00897646	
55,7912	-0,00320536	
55,7912	-0,00320536	
55,8205	-0,0118049	
55,8205	-0,0118049	
55,8496	-0,00225547	
55,8496	-0,00225547	
55,8793	-0,00045318	
55,8793	-0,00045318	
55,9089	0,000634648	
55,9089	0,000634648	
55,9389	-0,0647117	
55,9389	-0,0647117	
55,9683	-0,0482948	
55,9683	-0,0482948	
55,9979	-0,0363417	
55,9979	-0,0363417	
56,0273	-0,00668569	
56,0273	-0,00668569	
56,0564	-0,014712	
56,0564	-0,014712	
56,0861	-0,00223818	
56,0861	-0,00223818	
56,1161	0,0713859	
56,1161	0,0713859	
56,1456	0,0196175	
56,1456	0,0196175	
56,1746	-0,0125008	
56,1746	-0,0125008	
56,2044	-0,0445353	
56,2044	-0,0445353	
56,2339	-0,0357538	
56,2339	-0,0357538	
56,2633	0,00521814	
56,2633	0,00521814	
56,2929	-0,00530602	
56,2929	-0,00530602	
56,3226	0,00240172	
56,3226	0,00240172	
56,3525	-0,00648352	
56,3525	-0,00648352	
56,3821	-0,0180678	
56,3821	-0,0180678	
56,4117	-0,0280999	
56,4117	-0,0280999	
56,441	-0,0028059	
56,441	-0,0028059	
56,4704	-0,0166627	
56,4704	-0,0166627	
56,5001	-0,00852124	
56,5001	-0,00852124	
56,5295	-0,0241249	
56,5295	-0,0241249	
56,5589	-0,0211871	
56,5589	-0,0211871	
56,589	-0,0160092	
56,589	-0,0160092	
56,6186	-0,0367294	
56,6186	-0,0367294	
56,6475	-0,0443107	
56,6475	-0,0443107	
56,6772	0,0789397	
56,6772	0,0789397	
56,7066	-0,0215253	
56,7066	-0,0215253	
56,7357	0,0247495	
56,7357	0,0247495	
56,7657	-0,02166	
56,7657	-0,02166	
56,7954	-0,0147127	
56,7954	-0,0147127	
56,8254	-0,0507528	
56,8254	-0,0507528	
56,8545	-0,0566655	
56,8545	-0,0566655	
56,8841	0,0262814	
56,8841	0,0262814	
56,9138	-0,0113996	
56,9138	-0,0113996	
56,9434	-0,0203429	
56,9434	-0,0203429	
56,9726	-0,00855776	
56,9726	-0,00855776	
57,002	0,0157296	
57,002	0,0157296	
57,0319	0,0136971	
57,0319	0,0136971	
57,0613	-0,0221722	
57,0613	-0,0221722	
57,091	-0,0109271	
57,091	-0,0109271	
57,1204	-0,016362	
57,1204	-0,016362	
57,1504	-0,0146765	
57,1504	-0,0146765	
57,1801	-0,0174293	
57,1801	-0,0174293	
57,2095	-0,00151981	
57,2095	-0,00151981	
57,2392	-0,00531286	
57,2392	-0,00531286	
57,2685	-0,00669319	
57,2685	-0,00669319	
57,2972	-0,0138733	
57,2972	-0,0138733	
57,3274	-0,00322036	
57,3274	-0,00322036	
57,3568	-0,0153981	
57,3568	-0,0153981	
57,3864	-0,00906124	
57,3864	-0,00906124	
57,4157	-0,0323553	
57,4157	-0,0323553	
57,4456	-0,0164057	
57,4456	-0,0164057	
57,4751	0,00042367	
57,4751	0,00042367	
57,5045	-0,0220177	
57,5045	-0,0220177	
57,5333	-0,0299005	
57,5333	-0,0299005	
57,5637	-0,016184	
57,5637	-0,016184	
57,5927	-0,00516775	
57,5927	-0,00516775	
57,6228	-1,13311E-5	
57,6228	-1,13311E-5	
57,6523	-0,0114922	
57,6523	-0,0114922	
57,6817	-0,0264159	
57,6817	-0,0264159	
57,7112	-0,0153498	
57,7112	-0,0153498	
57,7408	-0,00642971	
57,7408	-0,00642971	
57,7702	-0,00512993	
57,7702	-0,00512993	
57,7996	-0,0183792	
57,7996	-0,0183792	
57,8292	-0,0108218	
57,8292	-0,0108218	
57,8591	-0,0793687	
57,8591	-0,0793687	
57,8884	0,0862708	
57,8884	0,0862708	
57,9178	-0,0139633	
57,9178	-0,0139633	
57,9474	-0,0202369	
57,9474	-0,0202369	
57,977	-0,00176992	
57,977	-0,00176992	
58,0068	-0,00455145	
58,0068	-0,00455145	
58,0368	-0,0113771	
58,0368	-0,0113771	
58,0663	-0,00778461	
58,0663	-0,00778461	
58,0956	-0,0192225	
58,0956	-0,0192225	
58,1251	-0,00294416	
58,1251	-0,00294416	
58,1543	0,00753531	
58,1543	0,00753531	
58,1836	0,0114493	
58,1836	0,0114493	
58,2136	-0,0258626	
58,2136	-0,0258626	
58,243	-0,00673624	
58,243	-0,00673624	
58,2724	-0,00645939	
58,2724	-0,00645939	
58,3025	-0,00466101	
58,3025	-0,00466101	
58,3317	-0,00828743	
58,3317	-0,00828743	
58,3612	-0,0105035	
58,3612	-0,0105035	
58,3904	0,00422911	
58,3904	0,00422911	
58,4196	-0,0103265	
58,4196	-0,0103265	
58,4496	-0,0161608	
58,4496	-0,0161608	
58,479	-0,00728211	
58,479	-0,00728211	
58,5091	0,0101786	
58,5091	0,0101786	
58,5387	0,000675083	
58,5387	0,000675083	
58,5678	-0,0379813	
58,5678	-0,0379813	
58,5978	0,00626683	
58,5978	0,00626683	
58,6267	0,010173	
58,6267	0,010173	
58,657	0,0236007	
58,657	0,0236007	
58,6863	0,0343048	
58,6863	0,0343048	
58,7159	0,0191897	
58,7159	0,0191897	
58,7452	0,0576778	
58,7452	0,0576778	
58,7744	0,0575571	
58,7744	0,0575571	
58,8042	0,0537863	
58,8042	0,0537863	
58,8339	0,0617692	
58,8339	0,0617692	
58,863	0,0904454	
58,863	0,0904454	
58,8929	0,121289	
58,8929	0,121289	
58,9218	0,114563	
58,9218	0,114563	
58,9516	0,169537	
58,9516	0,169537	
58,9809	0,141051	
58,9809	0,141051	
59,0108	0,143395	
59,0108	0,143395	
59,04	0,132903	
59,04	0,132903	
59,0698	0,157761	
59,0698	0,157761	
59,0995	0,159938	
59,0995	0,159938	
59,1287	0,164089	
59,1287	0,164089	
59,1587	0,129941	
59,1587	0,129941	
59,1876	0,127631	
59,1876	0,127631	
59,2168	0,0927299	
59,2168	0,0927299	
59,2465	0,0726149	
59,2465	0,0726149	
59,2758	0,0897707	
59,2758	0,0897707	
59,3059	0,0689167	
59,3059	0,0689167	
59,3355	0,0284936	
59,3355	0,0284936	
59,3647	-0,00282645	
59,3647	-0,00282645	
59,3945	-0,0214803	
59,3945	-0,0214803	
59,424	-0,0115662	
59,424	-0,0115662	
59,4537	-0,0259611	
59,4537	-0,0259611	
59,4828	-0,0239429	
59,4828	-0,0239429	
59,5125	-0,0384117	
59,5125	-0,0384117	
59,5418	-0,045557	
59,5418	-0,045557	
59,5709	-0,0198159	
59,5709	-0,0198159	
59,6006	-0,0166144	
59,6006	-0,0166144	
59,6305	-0,0174026	
59,6305	-0,0174026	
59,6602	0,0197822	
59,6602	0,0197822	
59,6897	0,00383455	
59,6897	0,00383455	
59,7191	-0,0117877	
59,7191	-0,0117877	
59,7493	-0,0228821	
59,7493	-0,0228821	
59,7785	0,00614325	
59,7785	0,00614325	
59,8085	-0,014412	
59,8085	-0,014412	
59,8377	-0,0103545	
59,8377	-0,0103545	
59,8671	-0,0465675	
59,8671	-0,0465675	
59,8966	-0,0213766	
59,8966	-0,0213766	
59,9264	-0,00815928	
59,9264	-0,00815928	
59,9559	-0,0174766	
59,9559	-0,0174766	
59,9856	-0,000978833	
59,9856	-0,000978833	
60,0146	-0,00119829	
60,0146	-0,00119829	
60,0443	0,0113805	
60,0443	0,0113805	
60,0734	-0,000520028	
60,0734	-0,000520028	
60,1033	-0,0110964	
60,1033	-0,0110964	
60,1328	-0,00441482	
60,1328	-0,00441482	
60,1626	-0,0192215	
60,1626	-0,0192215	
60,1924	-0,00649493	
60,1924	-0,00649493	
60,2217	0,0020365	
60,2217	0,0020365	
60,2511	-0,000789702	
60,2511	-0,000789702	
60,2807	-0,0147466	
60,2807	-0,0147466	
60,3105	-0,00976787	
60,3105	-0,00976787	
60,3401	-0,0219815	
60,3401	-0,0219815	
60,3691	-0,0240058	
60,3691	-0,0240058	
60,3984	-0,034303	
60,3984	-0,034303	
60,4288	-0,0331585	
60,4288	-0,0331585	
60,4585	0,00699629	
60,4585	0,00699629	
60,4882	-0,0608006	
60,4882	-0,0608006	
60,518	0,0186096	
60,518	0,0186096	
60,5476	-0,0211813	
60,5476	-0,0211813	
60,5772	0,00405694	
60,5772	0,00405694	
60,6067	-0,0183443	
60,6067	-0,0183443	
60,6355	-0,0368974	
60,6355	-0,0368974	
60,6653	-0,0283454	
60,6653	-0,0283454	
60,6952	0,00750336	
60,6952	0,00750336	
60,7245	-0,0181601	
60,7245	-0,0181601	
60,7542	-0,00358036	
60,7542	-0,00358036	
60,7838	0,000205191	
60,7838	0,000205191	
60,8135	-0,0218804	
60,8135	-0,0218804	
60,8431	-0,0167641	
60,8431	-0,0167641	
60,8721	-0,011473	
60,8721	-0,011473	
60,9008	-0,0232043	
60,9008	-0,0232043	
60,9309	0,00442379	
60,9309	0,00442379	
60,9609	-0,0294391	
60,9609	-0,0294391	
60,9903	-0,0050983	
60,9903	-0,0050983	
61,0196	0,00155356	
61,0196	0,00155356	
61,0497	-0,0100242	
61,0497	-0,0100242	
61,079	-0,0330916	
61,079	-0,0330916	
61,1088	-0,0122021	
61,1088	-0,0122021	
61,1381	-0,00109394	
61,1381	-0,00109394	
61,1681	-0,0122686	
61,1681	-0,0122686	
61,1972	0,011452	
61,1972	0,011452	
61,2268	-0,00363416	
61,2268	-0,00363416	
61,256	-0,0347354	
61,256	-0,0347354	
61,2856	-0,0367405	
61,2856	-0,0367405	
61,3148	-0,0244884	
61,3148	-0,0244884	
61,345	-0,0139874	
61,345	-0,0139874	
61,3748	0,00258661	
61,3748	0,00258661	
61,404	-0,0079995	
61,404	-0,0079995	
61,4334	-0,0209533	
61,4334	-0,0209533	
61,4627	-0,000773398	
61,4627	-0,000773398	
61,4923	-0,00721558	
61,4923	-0,00721558	
61,5218	-0,0118545	
61,5218	-0,0118545	
61,5512	-0,0120127	
61,5512	-0,0120127	
61,5811	-0,00671308	
61,5811	-0,00671308	
61,6108	-0,00870417	
61,6108	-0,00870417	
61,6398	-0,0021371	
61,6398	-0,0021371	
61,6696	-0,0131781	
61,6696	-0,0131781	
61,6989	-0,00676787	
61,6989	-0,00676787	
61,7282	-0,0165485	
61,7282	-0,0165485	
61,7582	-0,0226275	
61,7582	-0,0226275	
61,7877	0,0165471	
61,7877	0,0165471	
61,8172	-0,0650841	
61,8172	-0,0650841	
61,8468	-0,0188106	
61,8468	-0,0188106	
61,8767	-0,0241914	
61,8767	-0,0241914	
61,9058	-0,0118865	
61,9058	-0,0118865	
61,9353	0,000570409	
61,9353	0,000570409	
61,9649	-0,0356188	
61,9649	-0,0356188	
61,9946	-0,0120335	
61,9946	-0,0120335	
62,0241	-0,0271568	
62,0241	-0,0271568	
62,0534	-0,0119292	
62,0534	-0,0119292	
62,083	-0,0060358	
62,083	-0,0060358	
62,1126	-0,000283614	
62,1126	-0,000283614	
62,1419	-0,0232268	
62,1419	-0,0232268	
62,1714	-0,00990646	
62,1714	-0,00990646	
62,2014	-0,0397617	
62,2014	-0,0397617	
62,2309	-0,000420571	
62,2309	-0,000420571	
62,2601	-0,0147498	
62,2601	-0,0147498	
62,2893	-0,0241183	
62,2893	-0,0241183	
62,3191	0,00446879	
62,3191	0,00446879	
62,3486	-0,0203087	
62,3486	-0,0203087	
62,3779	0,000450083	
62,3779	0,000450083	
62,4081	-0,0331259	
62,4081	-0,0331259	
62,4378	-0,00515601	
62,4378	-0,00515601	
62,4668	-0,0319024	
62,4668	-0,0319024	
62,4961	-0,0138218	
62,4961	-0,0138218	
62,5259	-0,0116334	
62,5259	-0,0116334	
62,5551	-0,0198518	
62,5551	-0,0198518	
62,5851	-0,0130154	
62,5851	-0,0130154	
62,614	0,00121932	
62,614	0,00121932	
62,644	-0,00704406	
62,644	-0,00704406	
62,674	-0,0242119	
62,674	-0,0242119	
62,7034	-0,023415	
62,7034	-0,023415	
62,7329	-0,0100089	
62,7329	-0,0100089	
62,762	-0,0230546	
62,762	-0,0230546	
62,7918	-0,00195612	
62,7918	-0,00195612	
62,8216	-0,0229134	
62,8216	-0,0229134	
62,8511	-0,00326308	
62,8511	-0,00326308	
62,8806	-0,00557275	
62,8806	-0,00557275	
62,9098	-0,0208659	
62,9098	-0,0208659	
62,9391	0,0078389	
62,9391	0,0078389	
62,9689	0,00528498	
62,9689	0,00528498	
62,9984	-0,0244046	
62,9984	-0,0244046	
63,0278	-0,0355516	
63,0278	-0,0355516	
63,0579	-0,00354416	
63,0579	-0,00354416	
63,0877	-0,0145121	
63,0877	-0,0145121	
63,1166	-0,00662667	
63,1166	-0,00662667	
63,1464	0,0136393	
63,1464	0,0136393	
63,1762	-0,00585254	
63,1762	-0,00585254	
63,2057	-0,0235516	
63,2057	-0,0235516	
63,235	0,00961021	
63,235	0,00961021	
63,2646	-0,0376112	
63,2646	-0,0376112	
63,2948	-0,0186577	
63,2948	-0,0186577	
63,3233	-0,00614047	
63,3233	-0,00614047	
63,3532	-0,055859	
63,3532	-0,055859	
63,3827	-0,0348372	
63,3827	-0,0348372	
63,412	0,00954825	
63,412	0,00954825	
63,442	-0,0385216	
63,442	-0,0385216	
63,4714	-0,00325492	
63,4714	-0,00325492	
63,5014	-0,0132557	
63,5014	-0,0132557	
63,5305	-0,0156524	
63,5305	-0,0156524	
63,5599	-0,00528678	
63,5599	-0,00528678	
63,5901	-0,0184111	
63,5901	-0,0184111	
63,6194	-0,0121085	
63,6194	-0,0121085	
63,6492	-0,00224927	
63,6492	-0,00224927	
63,6784	-0,0171541	
63,6784	-0,0171541	
63,7084	-0,00808982	
63,7084	-0,00808982	
63,737	-0,0289575	
63,737	-0,0289575	
63,7669	0,0094814	
63,7669	0,0094814	
63,7963	-0,0139754	
63,7963	-0,0139754	
63,8259	-0,0182859	
63,8259	-0,0182859	
63,8554	-0,0208304	
63,8554	-0,0208304	
63,8852	-0,000568615	
63,8852	-0,000568615	
63,915	-0,00858548	
63,915	-0,00858548	
63,9441	-0,0207045	
63,9441	-0,0207045	
63,9733	-0,0142151	
63,9733	-0,0142151	
64,0033	-0,0321156	
64,0033	-0,0321156	
64,0325	-0,0373474	
64,0325	-0,0373474	
64,0624	-0,0017709	
64,0624	-0,0017709	
64,0917	-0,00600645	
64,0917	-0,00600645	
64,1217	-0,000932528	
64,1217	-0,000932528	
64,1512	-0,0200142	
64,1512	-0,0200142	
64,1808	-0,0177273	
64,1808	-0,0177273	
64,2096	-0,00798026	
64,2096	-0,00798026	
64,2392	-0,0126899	
64,2392	-0,0126899	
64,2691	-0,0240531	
64,2691	-0,0240531	
64,2981	-0,00804026	
64,2981	-0,00804026	
64,328	-0,00220851	
64,328	-0,00220851	
64,3575	0,0221056	
64,3575	0,0221056	
64,3868	-0,0158716	
64,3868	-0,0158716	
64,4168	-0,0235542	
64,4168	-0,0235542	
64,4464	-0,0270424	
64,4464	-0,0270424	
64,4754	-0,0133385	
64,4754	-0,0133385	
64,5054	0,000137691	
64,5054	0,000137691	
64,5346	-0,0321619	
64,5346	-0,0321619	
64,5647	-0,0235174	
64,5647	-0,0235174	
64,5939	0,00948793	
64,5939	0,00948793	
64,6236	-0,0155634	
64,6236	-0,0155634	
64,6526	-0,030899	
64,6526	-0,030899	
64,6825	0,00405694	
64,6825	0,00405694	
64,7121	-0,00779048	
64,7121	-0,00779048	
64,7418	-0,00863798	
64,7418	-0,00863798	
64,7713	-0,0193076	
64,7713	-0,0193076	
64,8003	0,00799836	
64,8003	0,00799836	
64,8296	-0,0171267	
64,8296	-0,0171267	
64,8593	-0,0142239	
64,8593	-0,0142239	
64,8893	-0,0264978	
64,8893	-0,0264978	
64,9184	-0,0172532	
64,9184	-0,0172532	
64,9482	-0,0418663	
64,9482	-0,0418663	
64,9776	-0,00528254	
64,9776	-0,00528254	
65,0075	0,0230613	
