#Masse - Plot 0	Amplitude (V) - Plot 0	scangeschwindigkeit: 3 s/amu druck: 9.4 E -06 ausgangsdruck: 1.0 E -5 mbar
0,1016	0,167005	
0,1016	0,167005	
0,130941	0,131606	
0,130941	0,131606	
0,161173	0,154546	
0,161173	0,154546	
0,190596	0,112551	
0,190596	0,112551	
0,220518	0,114754	
0,220518	0,114754	
0,24996	0,10953	
0,24996	0,10953	
0,279862	0,0812989	
0,279862	0,0812989	
0,309689	0,0451078	
0,309689	0,0451078	
0,340068	0,0394205	
0,340068	0,0394205	
0,369513	0,0146323	
0,369513	0,0146323	
0,399073	0,0195631	
0,399073	0,0195631	
0,428819	0,113422	
0,428819	0,113422	
0,458627	0,111719	
0,458627	0,111719	
0,488366	0,0718336	
0,488366	0,0718336	
0,517854	0,152206	
0,517854	0,152206	
0,547394	0,139424	
0,547394	0,139424	
0,577163	0,114053	
0,577163	0,114053	
0,606768	0,0884758	
0,606768	0,0884758	
0,636384	0,0697832	
0,636384	0,0697832	
0,666485	0,0619055	
0,666485	0,0619055	
0,695986	0,0434786	
0,695986	0,0434786	
0,725533	0,0738146	
0,725533	0,0738146	
0,754838	0,0976764	
0,754838	0,0976764	
0,784643	0,00667673	
0,784643	0,00667673	
0,814453	0,0186177	
0,814453	0,0186177	
0,843808	0,122836	
0,843808	0,122836	
0,873876	0,0798821	
0,873876	0,0798821	
0,903759	0,00771271	
0,903759	0,00771271	
0,933009	0,0815053	
0,933009	0,0815053	
0,963029	0,145928	
0,963029	0,145928	
0,992761	0,162909	
0,992761	0,162909	
1,02194	0,169798	
1,02194	0,169798	
1,05188	0,151255	
1,05188	0,151255	
1,08182	0,133007	
1,08182	0,133007	
1,11097	0,122885	
1,11097	0,122885	
1,14101	0,119209	
1,14101	0,119209	
1,17002	0,0618165	
1,17002	0,0618165	
1,20005	0,0275235	
1,20005	0,0275235	
1,22959	0,0535984	
1,22959	0,0535984	
1,25935	0,0884566	
1,25935	0,0884566	
1,28896	0,100532	
1,28896	0,100532	
1,31884	0,0799825	
1,31884	0,0799825	
1,34831	-0,00334688	
1,34831	-0,00334688	
1,37781	-0,00511721	
1,37781	-0,00511721	
1,40779	-0,0789787	
1,40779	-0,0789787	
1,43671	-0,0310676	
1,43671	-0,0310676	
1,46652	0,0232514	
1,46652	0,0232514	
1,49622	0,0337984	
1,49622	0,0337984	
1,52613	-0,000201114	
1,52613	-0,000201114	
1,55595	-0,0209308	
1,55595	-0,0209308	
1,58556	-0,00671047	
1,58556	-0,00671047	
1,61499	-0,0315561	
1,61499	-0,0315561	
1,64447	-0,00256036	
1,64447	-0,00256036	
1,67403	-0,0274477	
1,67403	-0,0274477	
1,70441	-0,0308162	
1,70441	-0,0308162	
1,73365	-0,0265337	
1,73365	-0,0265337	
1,76363	-0,032127	
1,76363	-0,032127	
1,7932	-0,0497015	
1,7932	-0,0497015	
1,82243	-0,0293527	
1,82243	-0,0293527	
1,85271	-0,0292686	
1,85271	-0,0292686	
1,8821	-0,028407	
1,8821	-0,028407	
1,91148	0,00744629	
1,91148	0,00744629	
1,94128	-0,0609023	
1,94128	-0,0609023	
1,97055	0,027786	
1,97055	0,027786	
2,00023	-0,0589119	
2,00023	-0,0589119	
2,03005	-0,0426134	
2,03005	-0,0426134	
2,0597	-0,0475357	
2,0597	-0,0475357	
2,08945	-0,00788732	
2,08945	-0,00788732	
2,11934	-0,0158608	
2,11934	-0,0158608	
2,14898	-0,0253565	
2,14898	-0,0253565	
2,17791	-0,0206722	
2,17791	-0,0206722	
2,20772	-0,0189645	
2,20772	-0,0189645	
2,23737	-0,020217	
2,23737	-0,020217	
2,26708	-0,00459612	
2,26708	-0,00459612	
2,29657	-0,0358846	
2,29657	-0,0358846	
2,32617	-0,0376229	
2,32617	-0,0376229	
2,35613	-0,0113334	
2,35613	-0,0113334	
2,38535	-0,016244	
2,38535	-0,016244	
2,41483	-0,00886102	
2,41483	-0,00886102	
2,44404	-0,0132903	
2,44404	-0,0132903	
2,47409	0,00292672	
2,47409	0,00292672	
2,5037	0,00663042	
2,5037	0,00663042	
2,53347	0,00593064	
2,53347	0,00593064	
2,56325	-0,0181578	
2,56325	-0,0181578	
2,59316	-0,0441391	
2,59316	-0,0441391	
2,62274	0,0164985	
2,62274	0,0164985	
2,65222	-0,0462802	
2,65222	-0,0462802	
2,68193	-0,0213613	
2,68193	-0,0213613	
2,71143	-0,0227696	
2,71143	-0,0227696	
2,74093	-0,0243759	
2,74093	-0,0243759	
2,77041	-0,0117746	
2,77041	-0,0117746	
2,80022	-0,0345747	
2,80022	-0,0345747	
2,82988	-0,0272481	
2,82988	-0,0272481	
2,85975	-0,0144355	
2,85975	-0,0144355	
2,88899	-0,0398077	
2,88899	-0,0398077	
2,91899	0,0252582	
2,91899	0,0252582	
2,949	0,00577672	
2,949	0,00577672	
2,97869	-0,0247989	
2,97869	-0,0247989	
3,0082	-0,0221449	
3,0082	-0,0221449	
3,03763	-0,0342998	
3,03763	-0,0342998	
3,06757	-0,0311589	
3,06757	-0,0311589	
3,09712	-0,0268728	
3,09712	-0,0268728	
3,12698	-0,0301118	
3,12698	-0,0301118	
3,15643	-0,0160548	
3,15643	-0,0160548	
3,18643	-0,0172271	
3,18643	-0,0172271	
3,21593	-0,016919	
3,21593	-0,016919	
3,24539	-0,0207975	
3,24539	-0,0207975	
3,27497	-0,00688297	
3,27497	-0,00688297	
3,30438	-0,0424758	
3,30438	-0,0424758	
3,33401	-0,00186579	
3,33401	-0,00186579	
3,36331	-0,0180453	
3,36331	-0,0180453	
3,39322	-0,0169379	
3,39322	-0,0169379	
3,42303	-0,0193425	
3,42303	-0,0193425	
3,45263	-0,0344035	
3,45263	-0,0344035	
3,48251	-0,0188514	
3,48251	-0,0188514	
3,51185	-0,00481069	
3,51185	-0,00481069	
3,54186	-0,0174163	
3,54186	-0,0174163	
3,57124	-0,0270737	
3,57124	-0,0270737	
3,6015	-0,0386439	
3,6015	-0,0386439	
3,63052	-0,00808004	
3,63052	-0,00808004	
3,66018	-0,0203302	
3,66018	-0,0203302	
3,68923	-0,0148493	
3,68923	-0,0148493	
3,71945	-0,0153492	
3,71945	-0,0153492	
3,74843	-0,0180665	
3,74843	-0,0180665	
3,77875	-0,0384949	
3,77875	-0,0384949	
3,80848	0,00539911	
3,80848	0,00539911	
3,83753	-0,041507	
3,83753	-0,041507	
3,86721	-0,00695504	
3,86721	-0,00695504	
3,89706	-0,0152246	
3,89706	-0,0152246	
3,92669	-0,0150146	
3,92669	-0,0150146	
3,95605	-0,0317635	
3,95605	-0,0317635	
3,98559	-0,00279253	
3,98559	-0,00279253	
4,0154	-0,0265059	
4,0154	-0,0265059	
4,04516	-0,013499	
4,04516	-0,013499	
4,07501	-0,0148239	
4,07501	-0,0148239	
4,10413	-0,0187643	
4,10413	-0,0187643	
4,13369	-0,011474	
4,13369	-0,011474	
4,16333	0,0172162	
4,16333	0,0172162	
4,19335	-0,00669156	
4,19335	-0,00669156	
4,22254	-0,0586716	
4,22254	-0,0586716	
4,25272	-0,0324802	
4,25272	-0,0324802	
4,28219	3,49734E-5	
4,28219	3,49734E-5	
4,31174	-0,022302	
4,31174	-0,022302	
4,34153	-0,0339111	
4,34153	-0,0339111	
4,37107	-0,00374569	
4,37107	-0,00374569	
4,40037	-0,00795776	
4,40037	-0,00795776	
4,43033	-0,0162772	
4,43033	-0,0162772	
4,46004	-0,00955787	
4,46004	-0,00955787	
4,4892	-0,0203507	
4,4892	-0,0203507	
4,5189	-0,0326227	
4,5189	-0,0326227	
4,54856	-0,042583	
4,54856	-0,042583	
4,57835	-0,0433728	
4,57835	-0,0433728	
4,60798	-0,0308439	
4,60798	-0,0308439	
4,63782	-0,0222935	
4,63782	-0,0222935	
4,66749	0,00433672	
4,66749	0,00433672	
4,69654	-0,000283614	
4,69654	-0,000283614	
4,72633	-0,0153074	
4,72633	-0,0153074	
4,75564	-0,0126912	
4,75564	-0,0126912	
4,78507	0,0333872	
4,78507	0,0333872	
4,81548	-0,000193288	
4,81548	-0,000193288	
4,84491	-0,0472106	
4,84491	-0,0472106	
4,87444	-0,0192609	
4,87444	-0,0192609	
4,90405	-0,0224726	
4,90405	-0,0224726	
4,93331	-0,0314706	
4,93331	-0,0314706	
4,96316	0,000311822	
4,96316	0,000311822	
4,99265	-0,0214519	
4,99265	-0,0214519	
5,02236	0,000922258	
5,02236	0,000922258	
5,05201	-0,0145509	
5,05201	-0,0145509	
5,08199	-0,0502569	
5,08199	-0,0502569	
5,11161	-0,00670721	
5,11161	-0,00670721	
5,14086	-0,0110523	
5,14086	-0,0110523	
5,17061	-0,00885711	
5,17061	-0,00885711	
5,20021	-0,0138384	
5,20021	-0,0138384	
5,23018	-0,0248491	
5,23018	-0,0248491	
5,2598	-0,00224112	
5,2598	-0,00224112	
5,28887	-0,028063	
5,28887	-0,028063	
5,31842	-0,0126759	
5,31842	-0,0126759	
5,34783	-0,019198	
5,34783	-0,019198	
5,37765	-0,0273548	
5,37765	-0,0273548	
5,40746	0,00735564	
5,40746	0,00735564	
5,43691	-0,0179298	
5,43691	-0,0179298	
5,46686	-0,0268262	
5,46686	-0,0268262	
5,49636	0,0129692	
5,49636	0,0129692	
5,52585	-0,0421004	
5,52585	-0,0421004	
5,55525	-0,0177172	
5,55525	-0,0177172	
5,58507	-0,0129107	
5,58507	-0,0129107	
5,61454	-0,0200119	
5,61454	-0,0200119	
5,64385	-0,0265467	
5,64385	-0,0265467	
5,67365	-0,00301623	
5,67365	-0,00301623	
5,70317	-0,0160115	
5,70317	-0,0160115	
5,7329	-0,0164338	
5,7329	-0,0164338	
5,7624	-0,0306407	
5,7624	-0,0306407	
5,79213	0,00183335	
5,79213	0,00183335	
5,82166	-0,0299605	
5,82166	-0,0299605	
5,85122	-0,0192058	
5,85122	-0,0192058	
5,88121	-0,00788504	
5,88121	-0,00788504	
5,91068	-0,0209312	
5,91068	-0,0209312	
5,94032	-0,00438156	
5,94032	-0,00438156	
5,9701	-0,0215634	
5,9701	-0,0215634	
5,99956	-0,00612971	
5,99956	-0,00612971	
6,02919	-0,00649167	
6,02919	-0,00649167	
6,05896	-0,0434583	
6,05896	-0,0434583	
6,08854	-0,018672	
6,08854	-0,018672	
6,11765	-0,0131637	
6,11765	-0,0131637	
6,14769	-0,00960613	
6,14769	-0,00960613	
6,17717	0,0257297	
6,17717	0,0257297	
6,20661	0,0238351	
6,20661	0,0238351	
6,2366	-0,0359452	
6,2366	-0,0359452	
6,26619	-0,048271	
6,26619	-0,048271	
6,29537	-0,0034884	
6,29537	-0,0034884	
6,32547	-0,0129811	
6,32547	-0,0129811	
6,35517	-0,0307141	
6,35517	-0,0307141	
6,38471	0,00993369	
6,38471	0,00993369	
6,4145	-0,0292578	
6,4145	-0,0292578	
6,44395	-0,0171906	
6,44395	-0,0171906	
6,47366	-0,0390258	
6,47366	-0,0390258	
6,50326	0,0201565	
6,50326	0,0201565	
6,53274	-0,0342857	
6,53274	-0,0342857	
6,56262	-0,0322558	
6,56262	-0,0322558	
6,59201	0,000361061	
6,59201	0,000361061	
6,62147	0,0203258	
6,62147	0,0203258	
6,65109	-0,0496337	
6,65109	-0,0496337	
6,68116	-0,0299794	
6,68116	-0,0299794	
6,7106	-0,0100323	
6,7106	-0,0100323	
6,74033	0,0315924	
6,74033	0,0315924	
6,76987	-0,00961265	
6,76987	-0,00961265	
6,79954	-0,0597874	
6,79954	-0,0597874	
6,8292	0,00456237	
6,8292	0,00456237	
6,85874	-0,0370193	
6,85874	-0,0370193	
6,88833	-0,0101941	
6,88833	-0,0101941	
6,91782	-0,0351104	
6,91782	-0,0351104	
6,94738	-0,00723711	
6,94738	-0,00723711	
6,97768	-0,00279351	
6,97768	-0,00279351	
7,00736	-0,00570743	
7,00736	-0,00570743	
7,03721	-0,00504482	
7,03721	-0,00504482	
7,06664	-0,0088545	
7,06664	-0,0088545	
7,09658	-0,00531091	
7,09658	-0,00531091	
7,12631	-0,0327215	
7,12631	-0,0327215	
7,15537	-0,0494866	
7,15537	-0,0494866	
7,1849	-0,00531906	
7,1849	-0,00531906	
7,21406	0,00155878	
7,21406	0,00155878	
7,2443	-0,0278449	
7,2443	-0,0278449	
7,27345	-0,00517884	
7,27345	-0,00517884	
7,30311	-0,0297388	
7,30311	-0,0297388	
7,33289	-0,0348636	
7,33289	-0,0348636	
7,36304	-0,0216032	
7,36304	-0,0216032	
7,39221	-0,0280027	
7,39221	-0,0280027	
7,42196	-0,0049646	
7,42196	-0,0049646	
7,45132	-0,00298199	
7,45132	-0,00298199	
7,48097	-0,024824	
7,48097	-0,024824	
7,51049	-0,0134699	
7,51049	-0,0134699	
7,54057	0,000245952	
7,54057	0,000245952	
7,57013	-0,0332159	
7,57013	-0,0332159	
7,5988	-0,0440198	
7,5988	-0,0440198	
7,62895	-0,00238036	
7,62895	-0,00238036	
7,65896	-0,0319301	
7,65896	-0,0319301	
7,68792	0,00701977	
7,68792	0,00701977	
7,71791	-0,0330209	
7,71791	-0,0330209	
7,74729	-0,0106252	
7,74729	-0,0106252	
7,77739	-0,0195397	
7,77739	-0,0195397	
7,80656	0,00103182	
7,80656	0,00103182	
7,83624	-0,0252782	
7,83624	-0,0252782	
7,86586	-0,0153922	
7,86586	-0,0153922	
7,89531	-0,0481911	
7,89531	-0,0481911	
7,92522	-0,0187561	
7,92522	-0,0187561	
7,95505	0,00142574	
7,95505	0,00142574	
7,98418	-0,00621189	
7,98418	-0,00621189	
8,01343	-0,0256037	
8,01343	-0,0256037	
8,04351	-0,0309222	
8,04351	-0,0309222	
8,07258	-0,0103764	
8,07258	-0,0103764	
8,1025	-0,00493786	
8,1025	-0,00493786	
8,13241	-0,0169095	
8,13241	-0,0169095	
8,16156	-0,0471626	
8,16156	-0,0471626	
8,19132	-0,020816	
8,19132	-0,020816	
8,22119	0,00644683	
8,22119	0,00644683	
8,25087	-0,028816	
8,25087	-0,028816	
8,27998	-0,0126935	
8,27998	-0,0126935	
8,3095	-0,0260729	
8,3095	-0,0260729	
8,33934	0,00259215	
8,33934	0,00259215	
8,36916	-0,0397145	
8,36916	-0,0397145	
8,39893	-0,0120296	
8,39893	-0,0120296	
8,42841	0,0132167	
8,42841	0,0132167	
8,45841	-0,030196	
8,45841	-0,030196	
8,48731	-0,0433282	
8,48731	-0,0433282	
8,5169	0,0174536	
8,5169	0,0174536	
8,54717	-0,0576551	
8,54717	-0,0576551	
8,57646	-0,00967037	
8,57646	-0,00967037	
8,60599	-0,0246195	
8,60599	-0,0246195	
8,63533	-0,0100033	
8,63533	-0,0100033	
8,66472	-0,0108293	
8,66472	-0,0108293	
8,69452	-0,0439973	
8,69452	-0,0439973	
8,72416	-0,0156961	
8,72416	-0,0156961	
8,75396	-0,00730167	
8,75396	-0,00730167	
8,7838	-0,0391634	
8,7838	-0,0391634	
8,81354	-0,0172493	
8,81354	-0,0172493	
8,84274	-0,00397916	
8,84274	-0,00397916	
8,87194	-0,0299445	
8,87194	-0,0299445	
8,90162	-0,0220128	
8,90162	-0,0220128	
8,9311	-0,0140784	
8,9311	-0,0140784	
8,96085	0,00111237	
8,96085	0,00111237	
8,99012	-0,00587015	
8,99012	-0,00587015	
9,02038	-0,0300923	
9,02038	-0,0300923	
9,04973	-0,00812439	
9,04973	-0,00812439	
9,07939	-0,0262813	
9,07939	-0,0262813	
9,10887	-0,00840385	
9,10887	-0,00840385	
9,13863	-0,0453369	
9,13863	-0,0453369	
9,16781	-0,00692634	
9,16781	-0,00692634	
9,19847	-0,0131611	
9,19847	-0,0131611	
9,22718	0,0286769	
9,22718	0,0286769	
9,25714	-0,0190692	
9,25714	-0,0190692	
9,28639	-0,00361264	
9,28639	-0,00361264	
9,31621	-0,0317458	
9,31621	-0,0317458	
9,34551	-0,00949461	
9,34551	-0,00949461	
9,37552	0,0117718	
9,37552	0,0117718	
9,40484	-0,0257194	
9,40484	-0,0257194	
9,43443	-0,00514591	
9,43443	-0,00514591	
9,46383	-0,0280748	
9,46383	-0,0280748	
9,4937	-0,000586876	
9,4937	-0,000586876	
9,52327	0,0100781	
9,52327	0,0100781	
9,55254	-0,0335778	
9,55254	-0,0335778	
9,58222	-0,00788406	
9,58222	-0,00788406	
9,61206	-0,00940559	
9,61206	-0,00940559	
9,64167	-0,0126511	
9,64167	-0,0126511	
9,67108	-0,0173536	
9,67108	-0,0173536	
9,70108	0,00759107	
9,70108	0,00759107	
9,73062	-0,006432	
9,73062	-0,006432	
9,76019	-0,0382467	
9,76019	-0,0382467	
9,78979	-0,0145623	
9,78979	-0,0145623	
9,81931	-0,0182429	
9,81931	-0,0182429	
9,84872	-0,026235	
9,84872	-0,026235	
9,87863	-0,0285502	
9,87863	-0,0285502	
9,90796	-0,018193	
9,90796	-0,018193	
9,93731	-0,0112659	
9,93731	-0,0112659	
9,96741	-0,0112486	
9,96741	-0,0112486	
9,99689	0,0161088	
9,99689	0,0161088	
10,0267	-0,0367007	
10,0267	-0,0367007	
10,0558	-0,0274529	
10,0558	-0,0274529	
10,0857	-0,00522482	
10,0857	-0,00522482	
10,1153	-0,0188302	
10,1153	-0,0188302	
10,1451	-0,0255515	
10,1451	-0,0255515	
10,1746	-0,0182266	
10,1746	-0,0182266	
10,2043	-0,00826689	
10,2043	-0,00826689	
10,2338	-0,011636	
10,2338	-0,011636	
10,2637	-0,0100473	
10,2637	-0,0100473	
10,2934	-0,0273459	
10,2934	-0,0273459	
10,3233	-0,00559623	
10,3233	-0,00559623	
10,3522	-0,0240238	
10,3522	-0,0240238	
10,3818	-0,0169711	
10,3818	-0,0169711	
10,4116	-0,000493941	
10,4116	-0,000493941	
10,4414	-0,0153127	
10,4414	-0,0153127	
10,4712	-0,007062	
10,4712	-0,007062	
10,5009	-0,0109027	
10,5009	-0,0109027	
10,53	-0,0343095	
10,53	-0,0343095	
10,5594	-0,0247793	
10,5594	-0,0247793	
10,5894	-0,00494112	
10,5894	-0,00494112	
10,6189	0,00223965	
10,6189	0,00223965	
10,6482	-0,0207564	
10,6482	-0,0207564	
10,6779	-0,0181226	
10,6779	-0,0181226	
10,7084	-0,0202901	
10,7084	-0,0202901	
10,7376	-0,0163444	
10,7376	-0,0163444	
10,767	-0,025902	
10,767	-0,025902	
10,7964	0,00344846	
10,7964	0,00344846	
10,826	-0,00995081	
10,826	-0,00995081	
10,8557	0,021366	
10,8557	0,021366	
10,8851	-0,0373846	
10,8851	-0,0373846	
10,9144	-0,0135635	
10,9144	-0,0135635	
10,9448	-0,021749	
10,9448	-0,021749	
10,9739	-0,00837972	
10,9739	-0,00837972	
11,004	-0,0247953	
11,004	-0,0247953	
11,0327	-0,00763493	
11,0327	-0,00763493	
11,0628	-0,0536022	
11,0628	-0,0536022	
11,0927	-0,0210518	
11,0927	-0,0210518	
11,1218	-0,0183319	
11,1218	-0,0183319	
11,1513	0,0104036	
11,1513	0,0104036	
11,1809	-0,0305739	
11,1809	-0,0305739	
11,2105	-0,00536308	
11,2105	-0,00536308	
11,2403	-0,00403884	
11,2403	-0,00403884	
11,2694	0,0843179	
11,2694	0,0843179	
11,2993	0,00528303	
11,2993	0,00528303	
11,3298	-0,0125246	
11,3298	-0,0125246	
11,3587	-0,0404188	
11,3587	-0,0404188	
11,389	-0,0133001	
11,389	-0,0133001	
11,4175	0,0262703	
11,4175	0,0262703	
11,4479	-0,0469128	
11,4479	-0,0469128	
11,4768	-0,0202216	
11,4768	-0,0202216	
11,5075	0,0185835	
11,5075	0,0185835	
11,5362	-0,0289832	
11,5362	-0,0289832	
11,5657	0,00517085	
11,5657	0,00517085	
11,5957	-0,0331709	
11,5957	-0,0331709	
11,625	0,0425855	
11,625	0,0425855	
11,6539	-0,0939992	
11,6539	-0,0939992	
11,6837	-0,0155295	
11,6837	-0,0155295	
11,7134	-0,0414078	
11,7134	-0,0414078	
11,744	-0,0306975	
11,744	-0,0306975	
11,7733	0,0135161	
11,7733	0,0135161	
11,8029	-0,0405525	
11,8029	-0,0405525	
11,8325	-0,0289878	
11,8325	-0,0289878	
11,8619	-0,00481656	
11,8619	-0,00481656	
11,8916	0,00141563	
11,8916	0,00141563	
11,9212	0,00415216	
11,9212	0,00415216	
11,951	-0,0219401	
11,951	-0,0219401	
11,9798	-0,0123127	
11,9798	-0,0123127	
12,0103	-0,00929244	
12,0103	-0,00929244	
12,0391	0,0108529	
12,0391	0,0108529	
12,0692	0,0101261	
12,0692	0,0101261	
12,0986	-0,0111916	
12,0986	-0,0111916	
12,1285	-0,00710439	
12,1285	-0,00710439	
12,157	-0,00562982	
12,157	-0,00562982	
12,1876	0,00576498	
12,1876	0,00576498	
12,2176	-0,0196698	
12,2176	-0,0196698	
12,2467	-0,00336547	
12,2467	-0,00336547	
12,2755	0,00363042	
12,2755	0,00363042	
12,3046	-0,0139177	
12,3046	-0,0139177	
12,3353	-0,0103643	
12,3353	-0,0103643	
12,3651	-0,0183756	
12,3651	-0,0183756	
12,3942	-0,00551406	
12,3942	-0,00551406	
12,4238	-0,0221344	
12,4238	-0,0221344	
12,4531	-0,000798506	
12,4531	-0,000798506	
12,4824	-0,0243104	
12,4824	-0,0243104	
12,5121	-0,0240143	
12,5121	-0,0240143	
12,5422	0,011193	
12,5422	0,011193	
12,5714	0,000950627	
12,5714	0,000950627	
12,6013	-0,034739	
12,6013	-0,034739	
12,6305	-0,0132224	
12,6305	-0,0132224	
12,6608	-0,0121812	
12,6608	-0,0121812	
12,6903	-0,00740308	
12,6903	-0,00740308	
12,7195	0,0182548	
12,7195	0,0182548	
12,7496	-0,0183834	
12,7496	-0,0183834	
12,7789	-0,0123489	
12,7789	-0,0123489	
12,8087	-0,00154688	
12,8087	-0,00154688	
12,8381	-0,025137	
12,8381	-0,025137	
12,8672	-0,039135	
12,8672	-0,039135	
12,8971	-0,000952746	
12,8971	-0,000952746	
12,9269	0,00805934	
12,9269	0,00805934	
12,9564	-0,0257533	
12,9564	-0,0257533	
12,986	-0,0215634	
12,986	-0,0215634	
13,0155	-0,00790656	
13,0155	-0,00790656	
13,0458	-0,000701658	
13,0458	-0,000701658	
13,0743	-0,00619395	
13,0743	-0,00619395	
13,104	-0,0123211	
13,104	-0,0123211	
13,1337	-0,00245992	
13,1337	-0,00245992	
13,1636	0,00889119	
13,1636	0,00889119	
13,1935	0,0131998	
13,1935	0,0131998	
13,2215	-0,00394949	
13,2215	-0,00394949	
13,2522	0,0345367	
13,2522	0,0345367	
13,2816	0,0153859	
13,2816	0,0153859	
13,3105	0,0264771	
13,3105	0,0264771	
13,3405	0,0577808	
13,3405	0,0577808	
13,3699	0,0354112	
13,3699	0,0354112	
13,4004	0,039084	
13,4004	0,039084	
13,4297	0,02498	
13,4297	0,02498	
13,4595	0,0445224	
13,4595	0,0445224	
13,4885	0,0383431	
13,4885	0,0383431	
13,5184	0,0497183	
13,5184	0,0497183	
13,5482	0,0129914	
13,5482	0,0129914	
13,5776	0,0399654	
13,5776	0,0399654	
13,6077	0,0458079	
13,6077	0,0458079	
13,637	0,0376345	
13,637	0,0376345	
13,6664	0,0082276	
13,6664	0,0082276	
13,6968	0,0339595	
13,6968	0,0339595	
13,7259	-0,0303336	
13,7259	-0,0303336	
13,7561	0,00161128	
13,7561	0,00161128	
13,7855	-0,0341889	
13,7855	-0,0341889	
13,8151	-0,0387072	
13,8151	-0,0387072	
13,8443	-0,00154688	
13,8443	-0,00154688	
13,8745	-0,0236899	
13,8745	-0,0236899	
13,9035	-0,0335341	
13,9035	-0,0335341	
13,933	0,00550738	
13,933	0,00550738	
13,9626	0,0115142	
13,9626	0,0115142	
13,9928	-0,00304851	
13,9928	-0,00304851	
14,0223	-0,00816417	
14,0223	-0,00816417	
14,0519	0,00428911	
14,0519	0,00428911	
14,0807	-0,0366401	
14,0807	-0,0366401	
14,1102	0,00206291	
14,1102	0,00206291	
14,14	0,0212897	
14,14	0,0212897	
14,1697	-0,0301914	
14,1697	-0,0301914	
14,1995	0,0111989	
14,1995	0,0111989	
14,2291	-0,0306107	
14,2291	-0,0306107	
14,2586	-0,0227074	
14,2586	-0,0227074	
14,288	0,00283411	
14,288	0,00283411	
14,318	-0,0157082	
14,318	-0,0157082	
14,348	0,00890227	
14,348	0,00890227	
14,377	-0,0137435	
14,377	-0,0137435	
14,4073	-0,0298656	
14,4073	-0,0298656	
14,4365	-0,0191387	
14,4365	-0,0191387	
14,4662	0,0410545	
14,4662	0,0410545	
14,4956	0,000471931	
14,4956	0,000471931	
14,5247	-0,0239074	
14,5247	-0,0239074	
14,5544	-0,0103685	
14,5544	-0,0103685	
14,584	-0,0328878	
14,584	-0,0328878	
14,6137	-0,00555906	
14,6137	-0,00555906	
14,6429	-0,0215354	
14,6429	-0,0215354	
14,6731	-0,00783417	
14,6731	-0,00783417	
14,7019	-0,0264508	
14,7019	-0,0264508	
14,732	0,000486931	
14,732	0,000486931	
14,7614	-0,0163535	
14,7614	-0,0163535	
14,7909	0,0142941	
14,7909	0,0142941	
14,8204	0,00333368	
14,8204	0,00333368	
14,8504	0,0190501	
14,8504	0,0190501	
14,88	-0,0139636	
14,88	-0,0139636	
14,91	-0,0408606	
14,91	-0,0408606	
14,9389	-0,0146843	
14,9389	-0,0146843	
14,9676	-0,0198137	
14,9676	-0,0198137	
14,9977	0,0027865	
14,9977	0,0027865	
15,0282	-0,0148333	
15,0282	-0,0148333	
15,0569	-0,0214271	
15,0569	-0,0214271	
15,0866	-0,0301855	
15,0866	-0,0301855	
15,117	-0,0156479	
15,117	-0,0156479	
15,1459	-0,00152764	
15,1459	-0,00152764	
15,176	0,00301378	
15,176	0,00301378	
15,2054	-0,0165518	
15,2054	-0,0165518	
15,2349	0,0278026	
15,2349	0,0278026	
15,2642	-0,018209	
15,2642	-0,018209	
15,2941	0,0231921	
15,2941	0,0231921	
15,3237	-0,0156358	
15,3237	-0,0156358	
15,3532	-0,0108642	
15,3532	-0,0108642	
15,3821	-0,0100023	
15,3821	-0,0100023	
15,4127	-0,0913357	
15,4127	-0,0913357	
15,442	-0,0221413	
15,442	-0,0221413	
15,4717	0,0482421	
15,4717	0,0482421	
15,5017	-0,011035	
15,5017	-0,011035	
15,5303	-0,0706569	
15,5303	-0,0706569	
15,56	0,00270204	
15,56	0,00270204	
15,5881	-0,00519645	
15,5881	-0,00519645	
15,6196	-0,0160128	
15,6196	-0,0160128	
15,6491	-0,0285257	
15,6491	-0,0285257	
15,6794	-0,00689863	
15,6794	-0,00689863	
15,7079	0,0141047	
15,7079	0,0141047	
15,7382	0,00765564	
15,7382	0,00765564	
15,7667	-0,030478	
15,7667	-0,030478	
15,7961	-0,00492091	
15,7961	-0,00492091	
15,8262	0,00259476	
15,8262	0,00259476	
15,8567	-0,0388484	
15,8567	-0,0388484	
15,885	-0,013843	
15,885	-0,013843	
15,9146	0,0101893	
15,9146	0,0101893	
15,9456	0,0207728	
15,9456	0,0207728	
15,9737	-0,00383079	
15,9737	-0,00383079	
16,0034	0,0165679	
16,0034	0,0165679	
16,0329	-0,0249622	
16,0329	-0,0249622	
16,0615	-0,0147202	
16,0615	-0,0147202	
16,093	0,0373061	
16,093	0,0373061	
16,1226	-0,0193943	
16,1226	-0,0193943	
16,1514	-0,00121818	
16,1514	-0,00121818	
16,1788	-0,00431732	
16,1788	-0,00431732	
16,2107	-0,00246057	
16,2107	-0,00246057	
16,24	0,0091563	
16,24	0,0091563	
16,2702	-0,0267626	
16,2702	-0,0267626	
16,2994	-0,0019871	
16,2994	-0,0019871	
16,3293	0,00417433	
16,3293	0,00417433	
16,3588	0,0207513	
16,3588	0,0207513	
16,3881	-0,0166428	
16,3881	-0,0166428	
16,418	-0,0145816	
16,418	-0,0145816	
16,4475	-0,0195981	
16,4475	-0,0195981	
16,477	-0,00856754	
16,477	-0,00856754	
16,5066	-0,00177318	
16,5066	-0,00177318	
16,5362	0,0078164	
16,5362	0,0078164	
16,5657	-0,00545667	
16,5657	-0,00545667	
16,5959	-0,0441613	
16,5959	-0,0441613	
16,6248	-0,017413	
16,6248	-0,017413	
16,6544	-0,0175839	
16,6544	-0,0175839	
16,6839	0,0146867	
16,6839	0,0146867	
16,7139	0,0133485	
16,7139	0,0133485	
16,7433	-0,0290377	
16,7433	-0,0290377	
16,773	-0,0193033	
16,773	-0,0193033	
16,8024	-0,00433982	
16,8024	-0,00433982	
16,8325	-0,0290742	
16,8325	-0,0290742	
16,8617	0,0105418	
16,8617	0,0105418	
16,8918	0,0288089	
16,8918	0,0288089	
16,9212	-0,0193134	
16,9212	-0,0193134	
16,951	0,0210233	
16,951	0,0210233	
16,9802	0,0164427	
16,9802	0,0164427	
17,0102	0,0424717	
17,0102	0,0424717	
17,0392	0,0180846	
17,0392	0,0180846	
17,0691	0,0340381	
17,0691	0,0340381	
17,0987	0,0758924	
17,0987	0,0758924	
17,128	0,00393629	
17,128	0,00393629	
17,1582	0,0318262	
17,1582	0,0318262	
17,1873	0,0144921	
17,1873	0,0144921	
17,2171	0,0158267	
17,2171	0,0158267	
17,2464	0,0815487	
17,2464	0,0815487	
17,2766	0,017376	
17,2766	0,017376	
17,3054	0,0491601	
17,3054	0,0491601	
17,3356	-0,0143191	
17,3356	-0,0143191	
17,3649	0,0127002	
17,3649	0,0127002	
17,3945	-0,00804254	
17,3945	-0,00804254	
17,4246	-0,000729376	
17,4246	-0,000729376	
17,4535	0,0020965	
17,4535	0,0020965	
17,4835	-0,0294795	
17,4835	-0,0294795	
17,5123	-0,0446958	
17,5123	-0,0446958	
17,543	0,00214248	
17,543	0,00214248	
17,5722	0,0460613	
17,5722	0,0460613	
17,6026	0,0214358	
17,6026	0,0214358	
17,6311	-0,0307066	
17,6311	-0,0307066	
17,6609	0,00381987	
17,6609	0,00381987	
17,6903	0,0392496	
17,6903	0,0392496	
17,7197	0,00366857	
17,7197	0,00366857	
17,7498	-0,0286073	
17,7498	-0,0286073	
17,7795	-0,00760461	
17,7795	-0,00760461	
17,8091	0,0421476	
17,8091	0,0421476	
17,8382	0,0182039	
17,8382	0,0182039	
17,8679	0,0339383	
17,8679	0,0339383	
17,897	0,087146	
17,897	0,087146	
17,927	0,0735292	
17,927	0,0735292	
17,9568	0,0936182	
17,9568	0,0936182	
17,9863	0,119135	
17,9863	0,119135	
18,016	0,108424	
18,016	0,108424	
18,0446	0,125386	
18,0446	0,125386	
18,0746	0,145842	
18,0746	0,145842	
18,1041	0,0923667	
18,1041	0,0923667	
18,1335	0,152959	
18,1335	0,152959	
18,1629	0,151189	
18,1629	0,151189	
18,1921	0,159865	
18,1921	0,159865	
18,2233	0,151794	
18,2233	0,151794	
18,2523	0,130911	
18,2523	0,130911	
18,2821	0,152596	
18,2821	0,152596	
18,3118	0,0836021	
18,3118	0,0836021	
18,3404	0,134957	
18,3404	0,134957	
18,3709	0,116856	
18,3709	0,116856	
18,4012	0,115484	
18,4012	0,115484	
18,4289	0,0464248	
18,4289	0,0464248	
18,4593	-0,00794602	
18,4593	-0,00794602	
18,4879	-0,00931494	
18,4879	-0,00931494	
18,5184	-0,0172679	
18,5184	-0,0172679	
18,5473	-0,0425941	
18,5473	-0,0425941	
18,5776	-0,0125902	
18,5776	-0,0125902	
18,6083	-0,00536341	
18,6083	-0,00536341	
18,6379	-0,0136023	
18,6379	-0,0136023	
18,6676	-0,0195955	
18,6676	-0,0195955	
18,6949	-0,0127219	
18,6949	-0,0127219	
18,7249	-0,0261932	
18,7249	-0,0261932	
18,755	0,00118574	
18,755	0,00118574	
18,7855	-0,00396123	
18,7855	-0,00396123	
18,8136	-0,00765776	
18,8136	-0,00765776	
18,8431	-0,0227455	
18,8431	-0,0227455	
18,873	-0,0280731	
18,873	-0,0280731	
18,903	-0,00994657	
18,903	-0,00994657	
18,933	-0,00167438	
18,933	-0,00167438	
18,9611	-0,0461472	
18,9611	-0,0461472	
18,9921	-0,00468612	
18,9921	-0,00468612	
19,0206	0,00415216	
19,0206	0,00415216	
19,0513	-0,00571199	
19,0513	-0,00571199	
19,0803	0,022477	
19,0803	0,022477	
19,1094	-0,0193979	
19,1094	-0,0193979	
19,139	0,00634542	
19,139	0,00634542	
19,1689	-0,0158086	
19,1689	-0,0158086	
19,1983	0,00521324	
19,1983	0,00521324	
19,2283	-0,0352096	
19,2283	-0,0352096	
19,2582	0,000636605	
19,2582	0,000636605	
19,2876	-0,0102564	
19,2876	-0,0102564	
19,3167	-0,012026	
19,3167	-0,012026	
19,3467	0,00137519	
19,3467	0,00137519	
19,3764	0,00243563	
19,3764	0,00243563	
19,4057	0,000854758	
19,4057	0,000854758	
19,4355	-0,00265394	
19,4355	-0,00265394	
19,4644	0,0127729	
19,4644	0,0127729	
19,4931	-0,0064121	
19,4931	-0,0064121	
19,5236	-0,00844298	
19,5236	-0,00844298	
19,553	0,0670333	
19,553	0,0670333	
19,5829	3,46473E-5	
19,5829	3,46473E-5	
19,612	0,110365	
19,612	0,110365	
19,6418	0,0878778	
19,6418	0,0878778	
19,6719	0,117056	
19,6719	0,117056	
19,7013	0,195295	
19,7013	0,195295	
19,7303	0,203393	
19,7303	0,203393	
19,7603	0,277423	
19,7603	0,277423	
19,7899	0,355759	
19,7899	0,355759	
19,8199	0,446695	
19,8199	0,446695	
19,8489	0,60511	
19,8489	0,60511	
19,8789	0,757312	
19,8789	0,757312	
19,9079	0,93104	
19,9079	0,93104	
19,9378	1,13019	
19,9378	1,13019	
19,9673	1,31462	
19,9673	1,31462	
19,9966	1,49324	
19,9966	1,49324	
20,0265	1,65043	
20,0265	1,65043	
20,0561	1,77681	
20,0561	1,77681	
20,0857	1,86216	
20,0857	1,86216	
20,1154	1,90958	
20,1154	1,90958	
20,1447	2,01123	
20,1447	2,01123	
20,1746	2,04322	
20,1746	2,04322	
20,204	2,00866	
20,204	2,00866	
20,2332	1,95731	
20,2332	1,95731	
20,2633	1,87572	
20,2633	1,87572	
20,2931	1,76358	
20,2931	1,76358	
20,3225	1,61613	
20,3225	1,61613	
20,353	1,39972	
20,353	1,39972	
20,3816	1,20484	
20,3816	1,20484	
20,412	0,898652	
20,412	0,898652	
20,4415	0,551101	
20,4415	0,551101	
20,4711	0,118178	
20,4711	0,118178	
20,501	-0,0295161	
20,501	-0,0295161	
20,5302	-0,03954	
20,5302	-0,03954	
20,5597	-0,0943106	
20,5597	-0,0943106	
20,5895	-0,0470231	
20,5895	-0,0470231	
20,6185	-0,0468453	
20,6185	-0,0468453	
20,648	-0,0421839	
20,648	-0,0421839	
20,6779	-0,0860815	
20,6779	-0,0860815	
20,7078	-0,0169643	
20,7078	-0,0169643	
20,7376	-0,0523986	
20,7376	-0,0523986	
20,7671	-0,0384235	
20,7671	-0,0384235	
20,796	-0,000718615	
20,796	-0,000718615	
20,8251	-0,0358415	
20,8251	-0,0358415	
20,8547	-0,0742256	
20,8547	-0,0742256	
20,8854	-0,0412598	
20,8854	-0,0412598	
20,9146	-0,00586199	
20,9146	-0,00586199	
20,9441	-0,0314256	
20,9441	-0,0314256	
20,9737	-0,0527074	
20,9737	-0,0527074	
21,0032	-0,0224282	
21,0032	-0,0224282	
21,0328	-0,0301004	
21,0328	-0,0301004	
21,0621	-0,0144919	
21,0621	-0,0144919	
21,0922	-0,0317827	
21,0922	-0,0317827	
21,1215	-0,060227	
21,1215	-0,060227	
21,151	-0,00433884	
21,151	-0,00433884	
21,1804	-0,0279283	
21,1804	-0,0279283	
21,2104	-0,0191292	
21,2104	-0,0191292	
21,2398	-0,0248572	
21,2398	-0,0248572	
21,2691	-0,000724159	
21,2691	-0,000724159	
21,2993	-0,0349894	
21,2993	-0,0349894	
21,3288	-0,0234844	
21,3288	-0,0234844	
21,3585	-0,010738	
21,3585	-0,010738	
21,3876	-0,0380638	
21,3876	-0,0380638	
21,4169	-0,0621287	
21,4169	-0,0621287	
21,447	0,0127736	
21,447	0,0127736	
21,476	-0,0382969	
21,476	-0,0382969	
21,5059	-0,0284869	
21,5059	-0,0284869	
21,5353	-0,0294143	
21,5353	-0,0294143	
21,5652	-0,0178685	
21,5652	-0,0178685	
21,5942	0,0174285	
21,5942	0,0174285	
21,6237	-0,0662877	
21,6237	-0,0662877	
21,6537	-0,0073633	
21,6537	-0,0073633	
21,6833	0,00164617	
21,6833	0,00164617	
21,7127	-0,0192094	
21,7127	-0,0192094	
21,7424	-0,0154372	
21,7424	-0,0154372	
21,7721	0,00525727	
21,7721	0,00525727	
21,802	-0,0679064	
21,802	-0,0679064	
21,8308	-0,0277317	
21,8308	-0,0277317	
21,8611	-0,0367859	
21,8611	-0,0367859	
21,8906	0,0113747	
21,8906	0,0113747	
21,9203	0,00438857	
21,9203	0,00438857	
21,9499	-0,0494765	
21,9499	-0,0494765	
21,979	-0,0532513	
21,979	-0,0532513	
22,0083	-0,00455438	
22,0083	-0,00455438	
22,038	-0,0379301	
22,038	-0,0379301	
22,0674	-0,0167579	
22,0674	-0,0167579	
22,0973	-0,0253118	
22,0973	-0,0253118	
22,1271	0,00440389	
22,1271	0,00440389	
22,1564	-0,00543123	
22,1564	-0,00543123	
22,1866	-0,0140866	
22,1866	-0,0140866	
22,2151	-0,00263079	
22,2151	-0,00263079	
22,2446	-0,0105961	
22,2446	-0,0105961	
22,2745	-0,0424138	
22,2745	-0,0424138	
22,3043	-0,0343653	
22,3043	-0,0343653	
22,3342	-0,053401	
22,3342	-0,053401	
22,3629	-0,016302	
22,3629	-0,016302	
22,3936	-0,0179406	
22,3936	-0,0179406	
22,4226	-0,0041696	
22,4226	-0,0041696	
22,4524	-0,00127981	
22,4524	-0,00127981	
22,4815	-0,00607363	
22,4815	-0,00607363	
22,5112	-0,0411	
22,5112	-0,0411	
22,5407	-0,0412875	
22,5407	-0,0412875	
22,5698	0,0167959	
22,5698	0,0167959	
22,6002	-0,00670102	
22,6002	-0,00670102	
22,6293	-0,00504351	
22,6293	-0,00504351	
22,6594	-0,056522	
22,6594	-0,056522	
22,6889	0,00881358	
22,6889	0,00881358	
22,718	-0,00903287	
22,718	-0,00903287	
22,748	-0,0426437	
22,748	-0,0426437	
22,7775	-0,00219286	
22,7775	-0,00219286	
22,8069	-0,00731341	
22,8069	-0,00731341	
22,8366	-0,00979624	
22,8366	-0,00979624	
22,8659	0,000736388	
22,8659	0,000736388	
22,8956	-0,044579	
22,8956	-0,044579	
22,9249	-0,0102475	
22,9249	-0,0102475	
22,955	-0,029354	
22,955	-0,029354	
22,9838	-0,0122233	
22,9838	-0,0122233	
23,0142	0,000279539	
23,0142	0,000279539	
23,0438	-0,0283842	
23,0438	-0,0283842	
23,0737	-0,0166813	
23,0737	-0,0166813	
23,103	-0,0141609	
23,103	-0,0141609	
23,1327	-0,0346682	
23,1327	-0,0346682	
23,162	0,0107802	
23,162	0,0107802	
23,1912	-0,0271552	
23,1912	-0,0271552	
23,2211	-0,0273541	
23,2211	-0,0273541	
23,2511	-0,0176025	
23,2511	-0,0176025	
23,2803	0,00373085	
23,2803	0,00373085	
23,3099	-0,0228257	
23,3099	-0,0228257	
23,3393	-0,0123658	
23,3393	-0,0123658	
23,3689	-0,0233527	
23,3689	-0,0233527	
23,3988	-0,0149243	
23,3988	-0,0149243	
23,4282	0,00666466	
23,4282	0,00666466	
23,458	-0,0259373	
23,458	-0,0259373	
23,4877	-0,0325872	
23,4877	-0,0325872	
23,5172	0,014285	
23,5172	0,014285	
23,5468	-0,0303564	
23,5468	-0,0303564	
23,5761	-0,0124917	
23,5761	-0,0124917	
23,6056	-0,0157901	
23,6056	-0,0157901	
23,6353	-0,00912744	
23,6353	-0,00912744	
23,6648	-0,0209559	
23,6648	-0,0209559	
23,6943	-0,0501571	
23,6943	-0,0501571	
23,7235	-0,0133747	
23,7235	-0,0133747	
23,7537	-0,0241519	
23,7537	-0,0241519	
23,7834	0,00237172	
23,7834	0,00237172	
23,813	-0,0121901	
23,813	-0,0121901	
23,8425	-0,0185416	
23,8425	-0,0185416	
23,8724	-0,0159035	
23,8724	-0,0159035	
23,9015	-0,0253072	
23,9015	-0,0253072	
23,9311	-0,00868396	
23,9311	-0,00868396	
23,9606	-0,0154056	
23,9606	-0,0154056	
23,9897	-0,0128787	
23,9897	-0,0128787	
24,0194	-0,045074	
24,0194	-0,045074	
24,0495	-0,0180163	
24,0495	-0,0180163	
24,0791	-0,00265036	
24,0791	-0,00265036	
24,1084	-0,0300955	
24,1084	-0,0300955	
24,1379	-0,0142662	
24,1379	-0,0142662	
24,1672	0,0129549	
24,1672	0,0129549	
24,1961	-0,0387039	
24,1961	-0,0387039	
24,2268	-0,0148248	
24,2268	-0,0148248	
24,2557	-0,0236563	
24,2557	-0,0236563	
24,2862	0,00856086	
24,2862	0,00856086	
24,3159	-0,0161344	
24,3159	-0,0161344	
24,3446	-0,0246362	
24,3446	-0,0246362	
24,3752	-0,0292604	
24,3752	-0,0292604	
24,4049	-0,0175134	
24,4049	-0,0175134	
24,434	-0,000255245	
24,434	-0,000255245	
24,4631	-0,00746243	
24,4631	-0,00746243	
24,4924	-0,0133385	
24,4924	-0,0133385	
24,5219	-0,0130271	
24,5219	-0,0130271	
24,5518	-0,00263992	
24,5518	-0,00263992	
24,5812	-0,0263276	
24,5812	-0,0263276	
24,6104	0,00922934	
24,6104	0,00922934	
24,6408	-0,011233	
24,6408	-0,011233	
24,67	-0,0468049	
24,67	-0,0468049	
24,6999	-0,0314419	
24,6999	-0,0314419	
24,729	-0,00903222	
24,729	-0,00903222	
24,7582	-0,0136033	
24,7582	-0,0136033	
24,7873	-0,0198707	
24,7873	-0,0198707	
24,8177	-0,0242034	
24,8177	-0,0242034	
24,8476	-0,00803765	
24,8476	-0,00803765	
24,8764	-0,00677634	
24,8764	-0,00677634	
24,9065	-0,0322604	
24,9065	-0,0322604	
24,9355	-0,0294479	
24,9355	-0,0294479	
24,966	-0,0172369	
24,966	-0,0172369	
24,9947	-0,00627123	
24,9947	-0,00627123	
25,0249	-0,0133069	
25,0249	-0,0133069	
25,0542	-0,00423417	
25,0542	-0,00423417	
25,0839	-0,016408	
25,0839	-0,016408	
25,1134	-0,0139581	
25,1134	-0,0139581	
25,143	-0,00789385	
25,143	-0,00789385	
25,1726	-0,0210176	
25,1726	-0,0210176	
25,2031	-0,00547134	
25,2031	-0,00547134	
25,2319	-0,0321326	
25,2319	-0,0321326	
25,2612	-0,00532493	
25,2612	-0,00532493	
25,2913	-0,0160069	
25,2913	-0,0160069	
25,3202	-0,0188902	
25,3202	-0,0188902	
25,3499	-0,0193963	
25,3499	-0,0193963	
25,3795	0,0014903	
25,3795	0,0014903	
25,4088	0,00056617	
25,4088	0,00056617	
25,4388	-0,0316555	
25,4388	-0,0316555	
25,4681	-0,0111303	
25,4681	-0,0111303	
25,4977	-0,027553	
25,4977	-0,027553	
25,5273	-0,0166441	
25,5273	-0,0166441	
25,5568	-0,019769	
25,5568	-0,019769	
25,5865	-0,00319036	
25,5865	-0,00319036	
25,6162	-0,000277745	
25,6162	-0,000277745	
25,645	-0,0437641	
25,645	-0,0437641	
25,6745	0,00976673	
25,6745	0,00976673	
25,7041	0,00404129	
25,7041	0,00404129	
25,7341	0,00736216	
25,7341	0,00736216	
25,7642	-0,0242491	
25,7642	-0,0242491	
25,7928	-0,0100434	
25,7928	-0,0100434	
25,8223	0,0112292	
25,8223	0,0112292	
25,8521	-0,0345795	
25,8521	-0,0345795	
25,8819	0,012366	
25,8819	0,012366	
25,9115	-0,0204896	
25,9115	-0,0204896	
25,9406	-0,030481	
25,9406	-0,030481	
25,9707	-0,00865298	
25,9707	-0,00865298	
26,0001	-0,0763889	
26,0001	-0,0763889	
26,0303	-0,0112675	
26,0303	-0,0112675	
26,0593	0,0199133	
26,0593	0,0199133	
26,0893	-0,00235166	
26,0893	-0,00235166	
26,1189	-0,0365834	
26,1189	-0,0365834	
26,1485	-0,0162189	
26,1485	-0,0162189	
26,1777	-0,00280427	
26,1777	-0,00280427	
26,2069	-0,0154411	
26,2069	-0,0154411	
26,2369	-0,020307	
26,2369	-0,020307	
26,2667	-0,0152853	
26,2667	-0,0152853	
26,2961	-0,00470764	
26,2961	-0,00470764	
26,326	-0,0112839	
26,326	-0,0112839	
26,3556	-0,0253803	
26,3556	-0,0253803	
26,3855	-0,00300645	
26,3855	-0,00300645	
26,4149	-0,0114965	
26,4149	-0,0114965	
26,4448	-0,0116044	
26,4448	-0,0116044	
26,4739	-0,00132775	
26,4739	-0,00132775	
26,504	-0,0113344	
26,504	-0,0113344	
26,5331	-0,0108508	
26,5331	-0,0108508	
26,563	-0,0119553	
26,563	-0,0119553	
26,5925	-0,0114175	
26,5925	-0,0114175	
26,622	-0,0614798	
26,622	-0,0614798	
26,6513	-0,0167993	
26,6513	-0,0167993	
26,6806	-0,0103265	
26,6806	-0,0103265	
26,7106	-0,00358264	
26,7106	-0,00358264	
26,7406	-0,014786	
26,7406	-0,014786	
26,7691	-0,0199741	
26,7691	-0,0199741	
26,7995	-0,0165459	
26,7995	-0,0165459	
26,829	-0,000442419	
26,829	-0,000442419	
26,8588	-0,0263573	
26,8588	-0,0263573	
26,888	0,0199729	
26,888	0,0199729	
26,9177	-0,019513	
26,9177	-0,019513	
26,9472	-0,0153864	
26,9472	-0,0153864	
26,9765	-0,0216518	
26,9765	-0,0216518	
27,0066	-0,0265588	
27,0066	-0,0265588	
27,0367	-0,00587308	
27,0367	-0,00587308	
27,0666	0,002584	
27,0666	0,002584	
27,0958	-0,00845765	
27,0958	-0,00845765	
27,1254	-0,0202418	
27,1254	-0,0202418	
27,1555	-0,0241268	
27,1555	-0,0241268	
27,1846	-0,0158882	
27,1846	-0,0158882	
27,2136	-0,00819646	
27,2136	-0,00819646	
27,2434	-0,00232134	
27,2434	-0,00232134	
27,2732	-0,00975744	
27,2732	-0,00975744	
27,3027	-0,00278895	
27,3027	-0,00278895	
27,3326	-0,0103464	
27,3326	-0,0103464	
27,3616	-0,0147573	
27,3616	-0,0147573	
27,3916	0,0113558	
27,3916	0,0113558	
27,4212	-0,0250558	
27,4212	-0,0250558	
27,4505	-0,0230546	
27,4505	-0,0230546	
27,4801	0,0092913	
27,4801	0,0092913	
27,5096	-0,00445851	
27,5096	-0,00445851	
27,5388	0,0249468	
27,5388	0,0249468	
27,5682	-0,0660199	
27,5682	-0,0660199	
27,5988	-0,014081	
27,5988	-0,014081	
27,6279	-0,0157144	
27,6279	-0,0157144	
27,6577	-0,00594156	
27,6577	-0,00594156	
27,687	-0,00831059	
27,687	-0,00831059	
27,7167	-0,00306742	
27,7167	-0,00306742	
27,7466	-0,00914602	
27,7466	-0,00914602	
27,776	-0,0121007	
27,776	-0,0121007	
27,8058	0,00144987	
27,8058	0,00144987	
27,8337	-0,00271297	
27,8337	-0,00271297	
27,8644	0,0221998	
27,8644	0,0221998	
27,8927	0,00388737	
27,8927	0,00388737	
27,9237	0,0294005	
27,9237	0,0294005	
27,9531	0,0338975	
27,9531	0,0338975	
27,9822	0,0404884	
27,9822	0,0404884	
28,0124	0,0622085	
28,0124	0,0622085	
28,0422	0,0772421	
28,0422	0,0772421	
28,0713	0,0615905	
28,0713	0,0615905	
28,1005	0,0701396	
28,1005	0,0701396	
28,1301	0,12148	
28,1301	0,12148	
28,1598	0,125814	
28,1598	0,125814	
28,1897	0,0948123	
28,1897	0,0948123	
28,2194	0,146545	
28,2194	0,146545	
28,2482	0,158404	
28,2482	0,158404	
28,2777	0,161227	
28,2777	0,161227	
28,3067	0,152599	
28,3067	0,152599	
28,3368	0,197239	
28,3368	0,197239	
28,3668	0,157464	
28,3668	0,157464	
28,3964	0,143931	
28,3964	0,143931	
28,4259	0,148927	
28,4259	0,148927	
28,4551	0,121245	
28,4551	0,121245	
28,4848	0,123628	
28,4848	0,123628	
28,5152	0,100264	
28,5152	0,100264	
28,5448	0,0831801	
28,5448	0,0831801	
28,5737	0,0348145	
28,5737	0,0348145	
28,6034	0,0167039	
28,6034	0,0167039	
28,6327	-0,011845	
28,6327	-0,011845	
28,6623	-0,0203171	
28,6623	-0,0203171	
28,6921	-0,0226982	
28,6921	-0,0226982	
28,7216	0,00462368	
28,7216	0,00462368	
28,751	0,00592738	
28,751	0,00592738	
28,7807	-0,0254364	
28,7807	-0,0254364	
28,8096	-0,00158894	
28,8096	-0,00158894	
28,8394	-0,00037068	
28,8394	-0,00037068	
28,8695	-0,0190444	
28,8695	-0,0190444	
28,8985	-0,024299	
28,8985	-0,024299	
28,9286	-0,00854798	
28,9286	-0,00854798	
28,9579	0,0161365	
28,9579	0,0161365	
28,9873	-0,00834026	
28,9873	-0,00834026	
29,0171	-0,0400614	
29,0171	-0,0400614	
29,0464	-0,0136705	
29,0464	-0,0136705	
29,0764	-0,0168635	
29,0764	-0,0168635	
29,1057	0,00116585	
29,1057	0,00116585	
29,1353	-0,0637279	
29,1353	-0,0637279	
29,1645	-0,0199079	
29,1645	-0,0199079	
29,1943	-0,0266308	
29,1943	-0,0266308	
29,2237	-0,0473847	
29,2237	-0,0473847	
29,2535	-0,0149572	
29,2535	-0,0149572	
29,2832	-0,00607526	
29,2832	-0,00607526	
29,3124	0,0105236	
29,3124	0,0105236	
29,3423	-0,0019059	
29,3423	-0,0019059	
29,3719	0,00474466	
29,3719	0,00474466	
29,4017	-0,0295441	
29,4017	-0,0295441	
29,4312	-0,0200628	
29,4312	-0,0200628	
29,461	0,00951173	
29,461	0,00951173	
29,4906	-0,0311997	
29,4906	-0,0311997	
29,5195	-0,00716569	
29,5195	-0,00716569	
29,5491	-0,0204828	
29,5491	-0,0204828	
29,5783	-0,00739004	
29,5783	-0,00739004	
29,608	-0,0390858	
29,608	-0,0390858	
29,6378	-0,0331125	
29,6378	-0,0331125	
29,6675	-0,0191223	
29,6675	-0,0191223	
29,6971	-0,0131664	
29,6971	-0,0131664	
29,7266	0,0045689	
29,7266	0,0045689	
29,7563	-0,00354058	
29,7563	-0,00354058	
29,7857	-0,0234143	
29,7857	-0,0234143	
29,815	-0,00520591	
29,815	-0,00520591	
29,8446	0,0133061	
29,8446	0,0133061	
29,8741	-0,0342606	
29,8741	-0,0342606	
29,9038	-0,0246443	
29,9038	-0,0246443	
29,9333	0,00211606	
29,9333	0,00211606	
29,9629	-0,0148754	
29,9629	-0,0148754	
29,9926	-0,0212634	
29,9926	-0,0212634	
30,0219	0,0110903	
30,0219	0,0110903	
30,0517	0,000256387	
30,0517	0,000256387	
30,0814	-0,0111521	
30,0814	-0,0111521	
30,1114	0,00994706	
30,1114	0,00994706	
30,1403	0,00517803	
30,1403	0,00517803	
30,1702	0,000197691	
30,1702	0,000197691	
30,2002	0,00948662	
30,2002	0,00948662	
30,2294	-0,0168048	
30,2294	-0,0168048	
30,2586	-0,000658615	
30,2586	-0,000658615	
30,2886	0,0223671	
30,2886	0,0223671	
30,3182	-0,0292448	
30,3182	-0,0292448	
30,3481	0,015801	
30,3481	0,015801	
30,3774	-0,010331	
30,3774	-0,010331	
30,4067	0,00382998	
30,4067	0,00382998	
30,4367	-0,0226372	
30,4367	-0,0226372	
30,4664	-0,00252677	
30,4664	-0,00252677	
30,4958	-0,0189557	
30,4958	-0,0189557	
30,5251	-0,00544036	
30,5251	-0,00544036	
30,5544	-0,0251109	
30,5544	-0,0251109	
30,5841	0,0086701	
30,5841	0,0086701	
30,6139	0,00730477	
30,6139	0,00730477	
30,6432	-0,000680789	
30,6432	-0,000680789	
30,6726	-0,0183893	
30,6726	-0,0183893	
30,703	-0,0139415	
30,703	-0,0139415	
30,7319	-0,0211901	
30,7319	-0,0211901	
30,7614	-0,0138123	
30,7614	-0,0138123	
30,7916	-0,031092	
30,7916	-0,031092	
30,8204	-0,0319761	
30,8204	-0,0319761	
30,8496	0,0135422	
30,8496	0,0135422	
30,8797	0,011647	
30,8797	0,011647	
30,9094	-0,0171254	
30,9094	-0,0171254	
30,9387	-0,0156283	
30,9387	-0,0156283	
30,9686	0,0143375	
30,9686	0,0143375	
30,9984	-0,00324384	
30,9984	-0,00324384	
31,028	-0,0374305	
31,028	-0,0374305	
31,0572	-0,0325073	
31,0572	-0,0325073	
31,0874	0,0028853	
31,0874	0,0028853	
31,1165	-0,00603384	
31,1165	-0,00603384	
31,1457	0,00180269	
31,1457	0,00180269	
31,175	-0,0208558	
31,175	-0,0208558	
31,2042	-0,00732417	
31,2042	-0,00732417	
31,2345	-0,0441254	
31,2345	-0,0441254	
31,2634	0,0199478	
31,2634	0,0199478	
31,2931	0,043779	
31,2931	0,043779	
31,3238	-0,000942311	
31,3238	-0,000942311	
31,3534	0,00801727	
31,3534	0,00801727	
31,3828	-0,00653113	
31,3828	-0,00653113	
31,4114	-0,00740276	
31,4114	-0,00740276	
31,4411	0,000336278	
31,4411	0,000336278	
31,4711	-0,0479276	
31,4711	-0,0479276	
31,5002	-0,00462319	
31,5002	-0,00462319	
31,5299	-0,0277239	
31,5299	-0,0277239	
31,5592	-0,0104827	
31,5592	-0,0104827	
31,5896	0,0249236	
31,5896	0,0249236	
31,6189	-0,0219528	
31,6189	-0,0219528	
31,6482	-0,0035934	
31,6482	-0,0035934	
31,6779	-0,0444903	
31,6779	-0,0444903	
31,7068	-0,00255416	
31,7068	-0,00255416	
31,7376	-0,0194468	
31,7376	-0,0194468	
31,7664	-0,0312613	
31,7664	-0,0312613	
31,7961	-0,0120873	
31,7961	-0,0120873	
31,8261	-0,00826983	
31,8261	-0,00826983	
31,8558	-0,00815472	
31,8558	-0,00815472	
31,8853	-0,0188086	
31,8853	-0,0188086	
31,9146	-0,00175036	
31,9146	-0,00175036	
31,9439	-0,00392764	
31,9439	-0,00392764	
31,9739	0,00187606	
31,9739	0,00187606	
32,0032	-0,0301167	
32,0032	-0,0301167	
32,0321	-0,0058946	
32,0321	-0,0058946	
32,0623	-0,00944276	
32,0623	-0,00944276	
32,0914	-0,0136953	
32,0914	-0,0136953	
32,1214	-0,0126061	
32,1214	-0,0126061	
32,151	0,0116623	
32,151	0,0116623	
32,1805	0,0326816	
32,1805	0,0326816	
32,2102	-0,0150189	
32,2102	-0,0150189	
32,2395	0,00952869	
32,2395	0,00952869	
32,2685	0,00158324	
32,2685	0,00158324	
32,2984	-0,0144688	
32,2984	-0,0144688	
32,3276	-0,0152488	
32,3276	-0,0152488	
32,3574	0,00400998	
32,3574	0,00400998	
32,3876	-0,000554267	
32,3876	-0,000554267	
32,4167	0,00895608	
32,4167	0,00895608	
32,4461	0,000389757	
32,4461	0,000389757	
32,4756	-0,0208532	
32,4756	-0,0208532	
32,505	0,00959586	
32,505	0,00959586	
32,5348	0,00990369	
32,5348	0,00990369	
32,5641	-0,0122461	
32,5641	-0,0122461	
32,5938	-0,0147061	
32,5938	-0,0147061	
32,6234	-0,00188829	
32,6234	-0,00188829	
32,6526	-0,0033821	
32,6526	-0,0033821	
32,682	0,00125389	
32,682	0,00125389	
32,7116	-0,0290445	
32,7116	-0,0290445	
32,7417	-0,0105358	
32,7417	-0,0105358	
32,771	-0,020757	
32,771	-0,020757	
32,8006	0,00172378	
32,8006	0,00172378	
32,8299	-0,0344012	
32,8299	-0,0344012	
32,8593	0,000507148	
32,8593	0,000507148	
32,8884	0,0043615	
32,8884	0,0043615	
32,9189	-0,0195182	
32,9189	-0,0195182	
32,9478	-0,00141938	
32,9478	-0,00141938	
32,9778	0,0111963	
32,9778	0,0111963	
33,0072	-0,0257833	
33,0072	-0,0257833	
33,0374	-0,0287517	
33,0374	-0,0287517	
33,0666	-0,022916	
33,0666	-0,022916	
33,0968	0,00332487	
33,0968	0,00332487	
33,1261	-0,0130574	
33,1261	-0,0130574	
33,1555	0,000704431	
33,1555	0,000704431	
33,1852	-0,0168459	
33,1852	-0,0168459	
33,2147	-0,021674	
33,2147	-0,021674	
33,2443	-0,0257416	
33,2443	-0,0257416	
33,2739	-0,0176132	
33,2739	-0,0176132	
33,3035	-0,00610493	
33,3035	-0,00610493	
33,3329	-0,020504	
33,3329	-0,020504	
33,3621	-0,0143752	
33,3621	-0,0143752	
33,3923	-0,00599667	
33,3923	-0,00599667	
33,4214	-0,0341384	
33,4214	-0,0341384	
33,4513	-0,0185461	
33,4513	-0,0185461	
33,4805	-0,0188064	
33,4805	-0,0188064	
33,5106	-0,00632308	
33,5106	-0,00632308	
33,5402	-0,0493719	
33,5402	-0,0493719	
33,5699	-0,0435757	
33,5699	-0,0435757	
33,5988	0,00779879	
33,5988	0,00779879	
33,6284	0,00197161	
33,6284	0,00197161	
33,6582	-0,0196144	
33,6582	-0,0196144	
33,6874	-0,0349141	
33,6874	-0,0349141	
33,7177	0,00668488	
33,7177	0,00668488	
33,7471	0,0136283	
33,7471	0,0136283	
33,7771	-0,0525297	
33,7771	-0,0525297	
33,8067	-0,0295399	
33,8067	-0,0295399	
33,8363	0,0237141	
33,8363	0,0237141	
33,8658	0,000407039	
33,8658	0,000407039	
33,8949	-0,0196255	
33,8949	-0,0196255	
33,9248	-0,0046108	
33,9248	-0,0046108	
33,9542	-0,0351199	
33,9542	-0,0351199	
33,9837	-0,0180531	
33,9837	-0,0180531	
34,0141	-0,00856787	
34,0141	-0,00856787	
34,0427	-0,000298288	
34,0427	-0,000298288	
34,0723	-0,0185853	
34,0723	-0,0185853	
34,102	0,00933075	
34,102	0,00933075	
34,1316	-0,0591007	
34,1316	-0,0591007	
34,1608	-0,0281726	
34,1608	-0,0281726	
34,1902	0,0103162	
34,1902	0,0103162	
34,22	-0,0254361	
34,22	-0,0254361	
34,2494	-0,0170494	
34,2494	-0,0170494	
34,2796	0,0142759	
34,2796	0,0142759	
34,3088	0,0111115	
34,3088	0,0111115	
34,3385	0,00691086	
34,3385	0,00691086	
34,3682	-0,0315668	
34,3682	-0,0315668	
34,3979	-0,00335079	
34,3979	-0,00335079	
34,4271	-0,0343888	
34,4271	-0,0343888	
34,4567	-0,0187829	
34,4567	-0,0187829	
34,4866	0,0177376	
34,4866	0,0177376	
34,5156	-0,00600417	
34,5156	-0,00600417	
34,5451	-0,0321453	
34,5451	-0,0321453	
34,5743	0,00606042	
34,5743	0,00606042	
34,6046	-0,0071308	
34,6046	-0,0071308	
34,634	-0,0229412	
34,634	-0,0229412	
34,6637	-0,039482	
34,6637	-0,039482	
34,6932	-0,0119289	
34,6932	-0,0119289	
34,7224	-0,00364982	
34,7224	-0,00364982	
34,7521	-0,0312906	
34,7521	-0,0312906	
34,7817	0,00709412	
34,7817	0,00709412	
34,8111	-0,0233051	
34,8111	-0,0233051	
34,8407	-0,00481949	
34,8407	-0,00481949	
34,8703	0,0113274	
34,8703	0,0113274	
34,9	-0,0324098	
34,9	-0,0324098	
34,9302	-0,00980276	
34,9302	-0,00980276	
34,9593	-0,0552783	
34,9593	-0,0552783	
34,9882	-0,036899	
34,9882	-0,036899	
35,0182	-0,00749145	
35,0182	-0,00749145	
35,0469	0,019177	
35,0469	0,019177	
35,077	-0,00042481	
35,077	-0,00042481	
35,1062	-0,0200096	
35,1062	-0,0200096	
35,1368	-0,0086057	
35,1368	-0,0086057	
35,1659	-0,0204296	
35,1659	-0,0204296	
35,1954	-0,0160213	
35,1954	-0,0160213	
35,2245	-0,00507873	
35,2245	-0,00507873	
35,2543	-0,0194145	
35,2543	-0,0194145	
35,2844	-0,0203396	
35,2844	-0,0203396	
35,3139	-0,0102065	
35,3139	-0,0102065	
35,3432	-0,026564	
35,3432	-0,026564	
35,3728	-0,0157656	
35,3728	-0,0157656	
35,4019	0,000963019	
35,4019	0,000963019	
35,4318	0,0143055	
35,4318	0,0143055	
35,4609	0,01325	
35,4609	0,01325	
35,4907	-0,0211118	
35,4907	-0,0211118	
35,5205	-0,020756	
35,5205	-0,020756	
35,5499	-0,00378743	
35,5499	-0,00378743	
35,5801	0,00891629	
35,5801	0,00891629	
35,609	-0,0499859	
35,609	-0,0499859	
35,6389	-0,0134002	
35,6389	-0,0134002	
35,668	0,00762955	
35,668	0,00762955	
35,6978	-0,0225424	
35,6978	-0,0225424	
35,7277	-0,00761048	
35,7277	-0,00761048	
35,7571	-0,0144909	
35,7571	-0,0144909	
35,7861	-0,0112871	
35,7861	-0,0112871	
35,8159	-0,0433076	
35,8159	-0,0433076	
35,8453	0,00519694	
35,8453	0,00519694	
35,8751	-0,0106669	
35,8751	-0,0106669	
35,9047	0,0194714	
35,9047	0,0194714	
35,9344	-0,0486995	
35,9344	-0,0486995	
35,9638	0,0112925	
35,9638	0,0112925	
35,9935	-0,00222384	
35,9935	-0,00222384	
36,0229	-0,0182527	
36,0229	-0,0182527	
36,0523	-0,0181363	
36,0523	-0,0181363	
36,0818	-0,00956374	
36,0818	-0,00956374	
36,1121	-0,00571917	
36,1121	-0,00571917	
36,1409	0,0100152	
36,1409	0,0100152	
36,1706	-0,0196552	
36,1706	-0,0196552	
36,1998	0,00505737	
36,1998	0,00505737	
36,2301	0,0156177	
36,2301	0,0156177	
36,2591	0,0408269	
36,2591	0,0408269	
36,2887	-0,00443177	
36,2887	-0,00443177	
36,3181	-0,00211851	
36,3181	-0,00211851	
36,3478	0,00896456	
36,3478	0,00896456	
36,3779	0,0187084	
36,3779	0,0187084	
36,4075	0,0324892	
36,4075	0,0324892	
36,4373	0,0147741	
36,4373	0,0147741	
36,4672	-0,00882287	
36,4672	-0,00882287	
36,4962	0,00586575	
36,4962	0,00586575	
36,5255	0,0116959	
36,5255	0,0116959	
36,5557	0,027171	
36,5557	0,027171	
36,5854	0,0128473	
36,5854	0,0128473	
36,6144	-0,00538688	
36,6144	-0,00538688	
36,6438	0,0173861	
36,6438	0,0173861	
36,6731	0,0136071	
36,6731	0,0136071	
36,7031	-0,0018759	
36,7031	-0,0018759	
36,7327	-0,0303857	
36,7327	-0,0303857	
36,7624	-0,0155918	
36,7624	-0,0155918	
36,792	-0,00860667	
36,792	-0,00860667	
36,8211	-0,0187519	
36,8211	-0,0187519	
36,8508	0,0356845	
36,8508	0,0356845	
36,8803	0,00169672	
36,8803	0,00169672	
36,9099	-0,0408714	
36,9099	-0,0408714	
36,9394	-0,0108205	
36,9394	-0,0108205	
36,9693	-0,0121216	
36,9693	-0,0121216	
36,9984	-0,0413041	
36,9984	-0,0413041	
37,0281	-0,00718461	
37,0281	-0,00718461	
37,0578	0,0331573	
37,0578	0,0331573	
37,0872	-0,0084345	
37,0872	-0,0084345	
37,1165	-0,00710145	
37,1165	-0,00710145	
37,1461	-0,0128246	
37,1461	-0,0128246	
37,1763	-0,0204821	
37,1763	-0,0204821	
37,2056	-0,0253115	
37,2056	-0,0253115	
37,2346	-0,0158005	
37,2346	-0,0158005	
37,2645	0,00472933	
37,2645	0,00472933	
37,2943	0,000581822	
37,2943	0,000581822	
37,3237	-0,0370203	
37,3237	-0,0370203	
37,3528	-0,00735808	
37,3528	-0,00735808	
37,3829	-0,0280187	
37,3829	-0,0280187	
37,4125	0,00806618	
37,4125	0,00806618	
37,4422	-0,00384514	
37,4422	-0,00384514	
37,4717	-0,0450349	
37,4717	-0,0450349	
37,5007	0,00772705	
37,5007	0,00772705	
37,5309	-0,0357949	
37,5309	-0,0357949	
37,56	0,0163279	
37,56	0,0163279	
37,5897	0,00874021	
37,5897	0,00874021	
37,6192	-0,0350723	
37,6192	-0,0350723	
37,6492	-0,00559623	
37,6492	-0,00559623	
37,6784	-0,023265	
37,6784	-0,023265	
37,7077	-0,113515	
37,7077	-0,113515	
37,7378	0,0701679	
37,7378	0,0701679	
37,7671	0,0472498	
37,7671	0,0472498	
37,7966	-0,0203373	
37,7966	-0,0203373	
37,8257	-0,0385608	
37,8257	-0,0385608	
37,8555	-0,035161	
37,8555	-0,035161	
37,8848	0,0016853	
37,8848	0,0016853	
37,9143	-0,0115353	
37,9143	-0,0115353	
37,9439	-0,0134067	
37,9439	-0,0134067	
37,9742	-0,0306055	
37,9742	-0,0306055	
38,003	-0,0228671	
38,003	-0,0228671	
38,033	-0,0188853	
38,033	-0,0188853	
38,0624	0,000251496	
38,0624	0,000251496	
38,0917	-0,029505	
38,0917	-0,029505	
38,1215	-0,0126316	
38,1215	-0,0126316	
38,1506	-0,0106434	
38,1506	-0,0106434	
38,1804	0,00562705	
38,1804	0,00562705	
38,2104	-0,0124989	
38,2104	-0,0124989	
38,2398	-0,00835167	
38,2398	-0,00835167	
38,2692	-0,0147433	
38,2692	-0,0147433	
38,2991	-0,0106806	
38,2991	-0,0106806	
38,3282	-0,023849	
38,3282	-0,023849	
38,3573	-0,00631623	
38,3573	-0,00631623	
38,3872	-0,00234123	
38,3872	-0,00234123	
38,4168	0,00547607	
38,4168	0,00547607	
38,4465	0,00490216	
38,4465	0,00490216	
38,4763	-0,00573612	
38,4763	-0,00573612	
38,506	0,016024	
38,506	0,016024	
38,5355	-0,013961	
38,5355	-0,013961	
38,5649	1,06026E-6	
38,5649	1,06026E-6	
38,5949	-0,00418427	
38,5949	-0,00418427	
38,6243	-0,00327351	
38,6243	-0,00327351	
38,6538	-0,0047458	
38,6538	-0,0047458	
38,6831	0,0408311	
38,6831	0,0408311	
38,7121	-0,0215145	
38,7121	-0,0215145	
38,742	-0,0631109	
38,742	-0,0631109	
38,7716	-0,00105025	
38,7716	-0,00105025	
38,8013	0,00328639	
38,8013	0,00328639	
38,831	-0,0129358	
38,831	-0,0129358	
38,8606	-0,0105182	
38,8606	-0,0105182	
38,89	0,00138237	
38,89	0,00138237	
38,9185	-0,0248771	
38,9185	-0,0248771	
38,9488	0,0234239	
38,9488	0,0234239	
38,9785	0,0032802	
38,9785	0,0032802	
39,0082	0,0032427	
39,0082	0,0032427	
39,0376	-0,00229199	
39,0376	-0,00229199	
39,0675	-0,0282466	
39,0675	-0,0282466	
39,0965	-0,0235291	
39,0965	-0,0235291	
39,1262	0,0118367	
39,1262	0,0118367	
39,1559	-0,0173745	
39,1559	-0,0173745	
39,185	0,0137655	
39,185	0,0137655	
39,2144	-0,0116582	
39,2144	-0,0116582	
39,2437	0,0145579	
39,2437	0,0145579	
39,2733	-0,0198375	
39,2733	-0,0198375	
39,3034	0,0135745	
39,3034	0,0135745	
39,3328	0,00132498	
39,3328	0,00132498	
39,3622	0,00552042	
39,3622	0,00552042	
39,391	0,0142325	
39,391	0,0142325	
39,4209	-0,0305491	
39,4209	-0,0305491	
39,4509	0,0204435	
39,4509	0,0204435	
39,4802	0,0493378	
39,4802	0,0493378	
39,5099	0,0203183	
39,5099	0,0203183	
39,5387	0,0262025	
39,5387	0,0262025	
39,5681	0,0548702	
39,5681	0,0548702	
39,5987	0,0308366	
39,5987	0,0308366	
39,6278	0,0425444	
39,6278	0,0425444	
39,6577	0,0625072	
39,6577	0,0625072	
39,6872	0,0603318	
39,6872	0,0603318	
39,7171	0,0784711	
39,7171	0,0784711	
39,7464	0,0968321	
39,7464	0,0968321	
39,7766	0,134913	
39,7766	0,134913	
39,8055	0,119198	
39,8055	0,119198	
39,835	0,159302	
39,835	0,159302	
39,8645	0,202819	
39,8645	0,202819	
39,8942	0,232036	
39,8942	0,232036	
39,9241	0,331362	
39,9241	0,331362	
39,9535	0,448346	
39,9535	0,448346	
39,983	0,553121	
39,983	0,553121	
40,0123	0,655419	
40,0123	0,655419	
40,0416	0,819204	
40,0416	0,819204	
40,0715	1,00424	
40,0715	1,00424	
40,1011	1,212	
40,1011	1,212	
40,1314	1,4868	
40,1314	1,4868	
40,1603	1,82849	
40,1603	1,82849	
40,1899	2,35459	
40,1899	2,35459	
40,2193	2,94233	
40,2193	2,94233	
40,2488	3,58623	
40,2488	3,58623	
40,2782	4,25526	
40,2782	4,25526	
40,3078	4,93572	
40,3078	4,93572	
40,3373	5,57609	
40,3373	5,57609	
40,3665	6,09243	
40,3665	6,09243	
40,3971	6,56416	
40,3971	6,56416	
40,4265	6,98059	
40,4265	6,98059	
40,4561	7,31649	
40,4561	7,31649	
40,4853	7,6232	
40,4853	7,6232	
40,5156	7,85978	
40,5156	7,85978	
40,5452	7,85392	
40,5452	7,85392	
40,5737	7,80728	
40,5737	7,80728	
40,6037	7,41224	
40,6037	7,41224	
40,6332	7,009	
40,6332	7,009	
40,6626	6,55689	
40,6626	6,55689	
40,6922	5,97917	
40,6922	5,97917	
40,7226	5,18736	
40,7226	5,18736	
40,7516	4,21104	
40,7516	4,21104	
40,7815	3,20265	
40,7815	3,20265	
40,8108	2,09515	
40,8108	2,09515	
40,8401	0,495951	
40,8401	0,495951	
40,8699	-0,293491	
40,8699	-0,293491	
40,8993	-0,165543	
40,8993	-0,165543	
40,9292	-0,176389	
40,9292	-0,176389	
40,9589	-0,15894	
40,9589	-0,15894	
40,9884	-0,163724	
40,9884	-0,163724	
41,0179	-0,157457	
41,0179	-0,157457	
41,0473	-0,142343	
41,0473	-0,142343	
41,0767	-0,113983	
41,0767	-0,113983	
41,1058	-0,171503	
41,1058	-0,171503	
41,1359	-0,153729	
41,1359	-0,153729	
41,1655	-0,110805	
41,1655	-0,110805	
41,1953	-0,108491	
41,1953	-0,108491	
41,2242	-0,0739077	
41,2242	-0,0739077	
41,2537	-0,110514	
41,2537	-0,110514	
41,2836	-0,0959483	
41,2836	-0,0959483	
41,3134	-0,0793478	
41,3134	-0,0793478	
41,3428	-0,0994237	
41,3428	-0,0994237	
41,3723	-0,0935385	
41,3723	-0,0935385	
41,402	-0,0477561	
41,402	-0,0477561	
41,4308	-0,0923026	
41,4308	-0,0923026	
41,4608	-0,0790833	
41,4608	-0,0790833	
41,4905	-0,084752	
41,4905	-0,084752	
41,5203	-0,0769634	
41,5203	-0,0769634	
41,5496	-0,0545459	
41,5496	-0,0545459	
41,5791	-0,0740371	
41,5791	-0,0740371	
41,6084	-0,079786	
41,6084	-0,079786	
41,638	-0,0526957	
41,638	-0,0526957	
41,6672	-0,0685478	
41,6672	-0,0685478	
41,6969	-0,0373546	
41,6969	-0,0373546	
41,7267	-0,0473142	
41,7267	-0,0473142	
41,7562	-0,0687891	
41,7562	-0,0687891	
41,7858	-0,0626968	
41,7858	-0,0626968	
41,8152	-0,0695926	
41,8152	-0,0695926	
41,8452	-0,0497195	
41,8452	-0,0497195	
41,8749	-0,0320941	
41,8749	-0,0320941	
41,9043	-0,0867144	
41,9043	-0,0867144	
41,9341	-0,0277744	
41,9341	-0,0277744	
41,9632	-0,0501649	
41,9632	-0,0501649	
41,9928	-0,0679696	
41,9928	-0,0679696	
42,0227	-0,0818922	
42,0227	-0,0818922	
42,0516	-0,0212931	
42,0516	-0,0212931	
42,0813	-0,0416677	
42,0813	-0,0416677	
42,1113	-0,0599753	
42,1113	-0,0599753	
42,1402	-0,0610217	
42,1402	-0,0610217	
42,1696	-0,0514158	
42,1696	-0,0514158	
42,2	-0,0157601	
42,2	-0,0157601	
42,2285	-0,0542084	
42,2285	-0,0542084	
42,2583	-0,051452	
42,2583	-0,051452	
42,2877	-0,0350038	
42,2877	-0,0350038	
42,3172	-0,0199728	
42,3172	-0,0199728	
42,3469	-0,0141358	
42,3469	-0,0141358	
42,3763	-0,0487631	
42,3763	-0,0487631	
42,406	-0,021401	
42,406	-0,021401	
42,4359	-0,0327786	
42,4359	-0,0327786	
42,4654	-0,0411838	
42,4654	-0,0411838	
42,4945	-0,0247431	
42,4945	-0,0247431	
42,5241	-0,0393362	
42,5241	-0,0393362	
42,5539	-0,0816262	
42,5539	-0,0816262	
42,5832	-0,032397	
42,5832	-0,032397	
42,6127	-0,0416511	
42,6127	-0,0416511	
42,643	-0,0512433	
42,643	-0,0512433	
42,6723	0,0123255	
42,6723	0,0123255	
42,7018	-0,0701511	
42,7018	-0,0701511	
42,7312	-0,0221129	
42,7312	-0,0221129	
42,7611	-0,0280128	
42,7611	-0,0280128	
42,7905	-0,0647544	
42,7905	-0,0647544	
42,8198	-0,00514395	
42,8198	-0,00514395	
42,8491	-0,0241744	
42,8491	-0,0241744	
42,8783	-0,0296286	
42,8783	-0,0296286	
42,9084	-0,0546982	
42,9084	-0,0546982	
42,938	-0,0352151	
42,938	-0,0352151	
42,9673	-0,0270336	
42,9673	-0,0270336	
42,9968	-0,0203579	
42,9968	-0,0203579	
43,0271	-0,0188804	
43,0271	-0,0188804	
43,0571	-0,0128116	
43,0571	-0,0128116	
43,0861	-0,0676719	
43,0861	-0,0676719	
43,1156	-0,0208415	
43,1156	-0,0208415	
43,1455	-0,0113161	
43,1455	-0,0113161	
43,1752	-0,0471264	
43,1752	-0,0471264	
43,2046	-0,022199	
43,2046	-0,022199	
43,2343	-0,0386592	
43,2343	-0,0386592	
43,2638	-0,00416471	
43,2638	-0,00416471	
43,2932	0,0114353	
43,2932	0,0114353	
43,3223	-0,036808	
43,3223	-0,036808	
43,3517	-0,0197765	
43,3517	-0,0197765	
43,3817	-0,0278944	
43,3817	-0,0278944	
43,4109	-0,000200788	
43,4109	-0,000200788	
43,4405	-0,0244822	
43,4405	-0,0244822	
43,4703	-0,0385275	
43,4703	-0,0385275	
43,4998	-0,0612441	
43,4998	-0,0612441	
43,5298	-0,0185263	
43,5298	-0,0185263	
43,5592	-0,0199398	
43,5592	-0,0199398	
43,5884	-0,0155413	
43,5884	-0,0155413	
43,6184	-0,0238157	
43,6184	-0,0238157	
43,6476	-0,055111	
43,6476	-0,055111	
43,6773	-0,0114639	
43,6773	-0,0114639	
43,7066	-0,0574722	
43,7066	-0,0574722	
43,7363	-0,0171658	
43,7363	-0,0171658	
43,7658	0,00195791	
43,7658	0,00195791	
43,7954	-0,0332543	
43,7954	-0,0332543	
43,8248	-0,00919396	
43,8248	-0,00919396	
43,8548	-0,014921	
43,8548	-0,014921	
43,884	-0,0346402	
43,884	-0,0346402	
43,9131	-0,0344961	
43,9131	-0,0344961	
43,9431	-0,0319151	
43,9431	-0,0319151	
43,9731	-0,00042318	
43,9731	-0,00042318	
44,0022	-0,0332361	
44,0022	-0,0332361	
44,0319	-0,00687352	
44,0319	-0,00687352	
44,0613	-0,0321085	
44,0613	-0,0321085	
44,091	-0,0245005	
44,091	-0,0245005	
44,1205	0,0146065	
44,1205	0,0146065	
44,15	-0,0483486	
44,15	-0,0483486	
44,1793	-0,0200435	
44,1793	-0,0200435	
44,2085	-0,0224419	
44,2085	-0,0224419	
44,2385	0,000799649	
44,2385	0,000799649	
44,2683	-0,0511882	
44,2683	-0,0511882	
44,2973	-0,0164902	
44,2973	-0,0164902	
44,3271	-0,053804	
44,3271	-0,053804	
44,3572	0,0244097	
44,3572	0,0244097	
44,3869	0,0388984	
44,3869	0,0388984	
44,4161	-0,0153153	
44,4161	-0,0153153	
44,4459	-0,0169454	
44,4459	-0,0169454	
44,4749	-0,0364053	
44,4749	-0,0364053	
44,5047	0,00352868	
44,5047	0,00352868	
44,5345	-0,035233	
44,5345	-0,035233	
44,5635	0,0314362	
44,5635	0,0314362	
44,5935	0,0230046	
44,5935	0,0230046	
44,6228	0,0379968	
44,6228	0,0379968	
44,6526	-0,00950765	
44,6526	-0,00950765	
44,6823	0,0098538	
44,6823	0,0098538	
44,7116	-0,0405199	
44,7116	-0,0405199	
44,7413	0,00751379	
44,7413	0,00751379	
44,7705	0,0037752	
44,7705	0,0037752	
44,8003	-0,0129776	
44,8003	-0,0129776	
44,8296	-0,0037871	
44,8296	-0,0037871	
44,8593	0,0125228	
44,8593	0,0125228	
44,8887	-0,010499	
44,8887	-0,010499	
44,9188	0,00572161	
44,9188	0,00572161	
44,9479	-0,0435473	
44,9479	-0,0435473	
44,9776	-0,0209119	
44,9776	-0,0209119	
45,007	-0,0204397	
45,007	-0,0204397	
45,0365	0,00476357	
45,0365	0,00476357	
45,0658	-0,00794504	
45,0658	-0,00794504	
45,0954	-0,0318691	
45,0954	-0,0318691	
45,1251	-0,0260237	
45,1251	-0,0260237	
45,1547	-0,0115803	
45,1547	-0,0115803	
45,1844	-0,00652037	
45,1844	-0,00652037	
45,2138	-0,0452544	
45,2138	-0,0452544	
45,2433	-0,00389503	
45,2433	-0,00389503	
45,2732	0,0112638	
45,2732	0,0112638	
45,3025	-0,100454	
45,3025	-0,100454	
45,3319	-0,0153244	
45,3319	-0,0153244	
45,3617	-0,010964	
45,3617	-0,010964	
45,391	-0,00918287	
45,391	-0,00918287	
45,4202	-0,0214539	
45,4202	-0,0214539	
45,4501	0,00601705	
45,4501	0,00601705	
45,4794	-0,0384248	
45,4794	-0,0384248	
45,5092	-0,0218504	
45,5092	-0,0218504	
45,5388	-0,0354329	
45,5388	-0,0354329	
45,568	-0,0239814	
45,568	-0,0239814	
45,5973	-0,0224872	
45,5973	-0,0224872	
45,627	0,0308926	
45,627	0,0308926	
45,6565	-0,0410214	
45,6565	-0,0410214	
45,6863	0,00329324	
45,6863	0,00329324	
45,7158	-0,013289	
45,7158	-0,013289	
45,7451	-0,0102753	
45,7451	-0,0102753	
45,775	-0,0140905	
45,775	-0,0140905	
45,8045	-0,0247425	
45,8045	-0,0247425	
45,8334	-0,0277881	
45,8334	-0,0277881	
45,863	-0,0293573	
45,863	-0,0293573	
45,8925	-0,0179693	
45,8925	-0,0179693	
45,9223	-0,032355	
45,9223	-0,032355	
45,9519	-0,0162414	
45,9519	-0,0162414	
45,9822	-0,0314873	
45,9822	-0,0314873	
46,0113	-0,0129185	
46,0113	-0,0129185	
46,0408	-0,0277907	
46,0408	-0,0277907	
46,0702	0,0361518	
46,0702	0,0361518	
46,0998	-0,079921	
46,0998	-0,079921	
46,129	-0,0295412	
46,129	-0,0295412	
46,159	-0,00970428	
46,159	-0,00970428	
46,1882	-0,0304382	
46,1882	-0,0304382	
46,2177	-0,017471	
46,2177	-0,017471	
46,2473	-0,0210068	
46,2473	-0,0210068	
46,2763	0,0235674	
46,2763	0,0235674	
46,3066	0,001879	
46,3066	0,001879	
46,3365	-0,0115692	
46,3365	-0,0115692	
46,3655	-0,0175555	
46,3655	-0,0175555	
46,3957	-0,0196976	
46,3957	-0,0196976	
46,4248	-0,00921874	
46,4248	-0,00921874	
46,4548	-0,0209745	
46,4548	-0,0209745	
46,4843	-0,0115878	
46,4843	-0,0115878	
46,514	-0,0209015	
46,514	-0,0209015	
46,5434	-0,0235597	
46,5434	-0,0235597	
46,573	-0,033898	
46,573	-0,033898	
46,6026	0,0183803	
46,6026	0,0183803	
46,6323	-0,0273952	
46,6323	-0,0273952	
46,6616	-0,0265963	
46,6616	-0,0265963	
46,6908	-0,0126352	
46,6908	-0,0126352	
46,72	-0,0659247	
46,72	-0,0659247	
46,7501	-0,0562504	
46,7501	-0,0562504	
46,7796	-0,00827015	
46,7796	-0,00827015	
46,8092	-0,0132039	
46,8092	-0,0132039	
46,8388	0,0394459	
46,8388	0,0394459	
46,8685	-0,0334555	
46,8685	-0,0334555	
46,8979	-0,0185318	
46,8979	-0,0185318	
46,9278	-0,0920443	
46,9278	-0,0920443	
46,9572	-0,0317015	
46,9572	-0,0317015	
46,9866	-0,0231538	
46,9866	-0,0231538	
47,0162	0,00254357	
47,0162	0,00254357	
47,0455	-0,000578071	
47,0455	-0,000578071	
47,0764	-0,0525483	
47,0764	-0,0525483	
47,1054	-0,00764145	
47,1054	-0,00764145	
47,1349	-0,00869635	
47,1349	-0,00869635	
47,1645	-0,0300244	
47,1645	-0,0300244	
47,1941	-0,0263044	
47,1941	-0,0263044	
47,2244	0,0570462	
47,2244	0,0570462	
47,2535	-0,000235353	
47,2535	-0,000235353	
47,283	-0,0198733	
47,283	-0,0198733	
47,3126	-0,0278638	
47,3126	-0,0278638	
47,3418	-0,00703591	
47,3418	-0,00703591	
47,3715	-0,0261551	
47,3715	-0,0261551	
47,4013	-0,0223985	
47,4013	-0,0223985	
47,4303	-0,0152005	
47,4303	-0,0152005	
47,4604	-0,00914504	
47,4604	-0,00914504	
47,4896	-0,0112643	
47,4896	-0,0112643	
47,5191	-0,0175486	
47,5191	-0,0175486	
47,5479	-0,0227132	
47,5479	-0,0227132	
47,5782	-0,0146214	
47,5782	-0,0146214	
47,6077	-0,013978	
47,6077	-0,013978	
47,6376	-0,0397953	
47,6376	-0,0397953	
47,667	-0,0193196	
47,667	-0,0193196	
47,6967	-0,0569609	
47,6967	-0,0569609	
47,726	0,0034377	
47,726	0,0034377	
47,7561	0,0298981	
47,7561	0,0298981	
47,7851	-0,0291437	
47,7851	-0,0291437	
47,8147	-0,0315407	
47,8147	-0,0315407	
47,8447	-0,0278015	
47,8447	-0,0278015	
47,8736	-0,014292	
47,8736	-0,014292	
47,9033	-0,00797765	
47,9033	-0,00797765	
47,9326	-0,00366579	
47,9326	-0,00366579	
47,9619	-0,0240345	
47,9619	-0,0240345	
47,9921	-0,00257438	
47,9921	-0,00257438	
48,0216	-0,0222707	
48,0216	-0,0222707	
48,0511	0,013308	
48,0511	0,013308	
48,0803	-0,00423417	
48,0803	-0,00423417	
48,1096	-0,00839896	
48,1096	-0,00839896	
48,1396	-0,0199568	
48,1396	-0,0199568	
48,1692	-0,0173077	
48,1692	-0,0173077	
48,1983	-0,0540369	
48,1983	-0,0540369	
48,2279	0,0104763	
48,2279	0,0104763	
48,258	-0,0161214	
48,258	-0,0161214	
48,2872	-0,0310588	
48,2872	-0,0310588	
48,3165	-0,0113396	
48,3165	-0,0113396	
48,3456	0,00416879	
48,3456	0,00416879	
48,3755	-0,016319	
48,3755	-0,016319	
48,4052	-0,0246212	
48,4052	-0,0246212	
48,4345	-0,0473475	
48,4345	-0,0473475	
48,4641	-0,017411	
48,4641	-0,017411	
48,494	-0,0460582	
48,494	-0,0460582	
48,5235	-0,0198169	
48,5235	-0,0198169	
48,5531	0,0131483	
48,5531	0,0131483	
48,5827	-0,00837743	
48,5827	-0,00837743	
48,6122	-0,0152099	
48,6122	-0,0152099	
48,6418	-0,0499327	
48,6418	-0,0499327	
48,671	-0,0124428	
48,671	-0,0124428	
48,7003	-0,0295963	
48,7003	-0,0295963	
48,7303	-0,0104318	
48,7303	-0,0104318	
48,7597	2,2582E-5	
48,7597	2,2582E-5	
48,7893	0,0248692	
48,7893	0,0248692	
48,8192	-0,0205434	
48,8192	-0,0205434	
48,8487	0,0228402	
48,8487	0,0228402	
48,8781	-0,0315287	
48,8781	-0,0315287	
48,9077	-0,0257768	
48,9077	-0,0257768	
48,9367	-0,0183407	
48,9367	-0,0183407	
48,9668	-0,0708966	
48,9668	-0,0708966	
48,9964	-0,00947831	
48,9964	-0,00947831	
49,0255	0,0232348	
49,0255	0,0232348	
49,0556	-0,0214392	
49,0556	-0,0214392	
49,0848	-0,0308817	
49,0848	-0,0308817	
49,1146	-0,0190597	
49,1146	-0,0190597	
49,1438	-0,0380905	
49,1438	-0,0380905	
49,1733	-0,0417293	
49,1733	-0,0417293	
49,203	0,00949217	
49,203	0,00949217	
49,2322	-0,0198192	
49,2322	-0,0198192	
49,2623	0,0152528	
49,2623	0,0152528	
49,2915	-0,0238128	
49,2915	-0,0238128	
49,3212	-0,0216159	
49,3212	-0,0216159	
49,3508	-0,0261844	
49,3508	-0,0261844	
49,381	-0,0257426	
49,381	-0,0257426	
49,4101	-0,0230706	
49,4101	-0,0230706	
49,4394	-0,0244911	
49,4394	-0,0244911	
49,4688	0,00354922	
49,4688	0,00354922	
49,4983	-0,0157353	
49,4983	-0,0157353	
49,5279	-0,0153688	
49,5279	-0,0153688	
49,5572	-0,0106023	
49,5572	-0,0106023	
49,5867	-0,0191996	
49,5867	-0,0191996	
49,6166	-0,00507808	
49,6166	-0,00507808	
49,6459	-0,0195329	
49,6459	-0,0195329	
49,6757	0,00568281	
49,6757	0,00568281	
49,7053	-0,0262545	
49,7053	-0,0262545	
49,7348	0,00300889	
49,7348	0,00300889	
49,7641	-0,0392005	
49,7641	-0,0392005	
49,7939	0,0262077	
49,7939	0,0262077	
49,8232	-0,0358872	
49,8232	-0,0358872	
49,8526	-0,0299445	
49,8526	-0,0299445	
49,8825	-0,0142695	
49,8825	-0,0142695	
49,9119	-0,0241275	
49,9119	-0,0241275	
49,9416	0,00118574	
49,9416	0,00118574	
49,9711	-0,0249922	
49,9711	-0,0249922	
50,0005	-0,0194827	
