#Masse - Plot 0	Amplitude (V) - Plot 0	scangeschw: 10 s/amu druck 1.1 E-5 mbar
0,117901	0,0118641	
0,117901	0,0118641	
0,147953	0,194257	
0,147953	0,194257	
0,177803	0,0954818	
0,177803	0,0954818	
0,207604	0,0902967	
0,207604	0,0902967	
0,237888	0,1473	
0,237888	0,1473	
0,26794	-0,0985485	
0,26794	-0,0985485	
0,298283	-0,627621	
0,298283	-0,627621	
0,328404	-0,12175	
0,328404	-0,12175	
0,358635	-0,312736	
0,358635	-0,312736	
0,3884	0,0186226	
0,3884	0,0186226	
0,418564	0,0674304	
0,418564	0,0674304	
0,448479	-0,159749	
0,448479	-0,159749	
0,478505	0,022476	
0,478505	0,022476	
0,507801	0,0612602	
0,507801	0,0612602	
0,537983	0,0680585	
0,537983	0,0680585	
0,567977	-0,00659569	
0,567977	-0,00659569	
0,59812	-0,119576	
0,59812	-0,119576	
0,627706	0,0730936	
0,627706	0,0730936	
0,657801	0,00291824	
0,657801	0,00291824	
0,68828	0,00988119	
0,68828	0,00988119	
0,717941	0,12541	
0,717941	0,12541	
0,747592	0,104762	
0,747592	0,104762	
0,777622	0,0620581	
0,777622	0,0620581	
0,807201	0,0680076	
0,807201	0,0680076	
0,837482	-0,00962831	
0,837482	-0,00962831	
0,866983	-0,117193	
0,866983	-0,117193	
0,897136	-0,236402	
0,897136	-0,236402	
0,926882	-0,166359	
0,926882	-0,166359	
0,956667	0,110342	
0,956667	0,110342	
0,986967	0,276822	
0,986967	0,276822	
1,0164	0,228025	
1,0164	0,228025	
1,04686	-0,0326638	
1,04686	-0,0326638	
1,07682	0,11395	
1,07682	0,11395	
1,10623	0,0338131	
1,10623	0,0338131	
1,13604	-0,0728221	
1,13604	-0,0728221	
1,16644	-0,236075	
1,16644	-0,236075	
1,19568	-0,199746	
1,19568	-0,199746	
1,2255	-0,18257	
1,2255	-0,18257	
1,25574	-0,17679	
1,25574	-0,17679	
1,28575	-0,090392	
1,28575	-0,090392	
1,3157	0,171752	
1,3157	0,171752	
1,34492	0,0244492	
1,34492	0,0244492	
1,37471	0,0742704	
1,37471	0,0742704	
1,4046	-0,00499656	
1,4046	-0,00499656	
1,43428	0,0221838	
1,43428	0,0221838	
1,4644	0,020572	
1,4644	0,020572	
1,49434	0,0167059	
1,49434	0,0167059	
1,52436	0,00232052	
1,52436	0,00232052	
1,55406	0,00158748	
1,55406	0,00158748	
1,58389	0,0649391	
1,58389	0,0649391	
1,6133	0,00792695	
1,6133	0,00792695	
1,64359	0,00658836	
1,64359	0,00658836	
1,67268	-0,0237887	
1,67268	-0,0237887	
1,7032	-0,0143924	
1,7032	-0,0143924	
1,73284	-0,0252172	
1,73284	-0,0252172	
1,76244	0,00357857	
1,76244	0,00357857	
1,79244	-0,0295578	
1,79244	-0,0295578	
1,82239	-0,01713	
1,82239	-0,01713	
1,85245	-0,00813026	
1,85245	-0,00813026	
1,88229	-0,0198805	
1,88229	-0,0198805	
1,91198	-0,0330535	
1,91198	-0,0330535	
1,94161	-0,00265231	
1,94161	-0,00265231	
1,97121	-0,00398503	
1,97121	-0,00398503	
2,00114	-0,00993092	
2,00114	-0,00993092	
2,03085	-0,000770789	
2,03085	-0,000770789	
2,0608	-0,0107657	
2,0608	-0,0107657	
2,09036	0,0108846	
2,09036	0,0108846	
2,12016	-0,00583362	
2,12016	-0,00583362	
2,15011	0,00429857	
2,15011	0,00429857	
2,17966	0,0293721	
2,17966	0,0293721	
2,20947	0,021799	
2,20947	0,021799	
2,23923	0,0429719	
2,23923	0,0429719	
2,26918	0,0916062	
2,26918	0,0916062	
2,29906	0,125569	
2,29906	0,125569	
2,32812	0,190281	
2,32812	0,190281	
2,35825	0,180247	
2,35825	0,180247	
2,38826	0,234961	
2,38826	0,234961	
2,41809	0,259696	
2,41809	0,259696	
2,4477	0,289751	
2,4477	0,289751	
2,47756	0,303642	
2,47756	0,303642	
2,50732	0,239722	
2,50732	0,239722	
2,53666	0,131684	
2,53666	0,131684	
2,56669	0,0157364	
2,56669	0,0157364	
2,59668	-0,0166082	
2,59668	-0,0166082	
2,62655	0,000290626	
2,62655	0,000290626	
2,65589	-0,018075	
2,65589	-0,018075	
2,68564	-0,0215647	
2,68564	-0,0215647	
2,71592	-0,0487304	
2,71592	-0,0487304	
2,74573	-0,0374658	
2,74573	-0,0374658	
2,77509	0,00102367	
2,77509	0,00102367	
2,80487	-0,00582123	
2,80487	-0,00582123	
2,83361	-0,0216684	
2,83361	-0,0216684	
2,86439	-0,0311018	
2,86439	-0,0311018	
2,8944	-0,0631249	
2,8944	-0,0631249	
2,92402	-0,0124206	
2,92402	-0,0124206	
2,95388	-0,02598	
2,95388	-0,02598	
2,98388	-0,0207919	
2,98388	-0,0207919	
3,01362	-0,0369381	
3,01362	-0,0369381	
3,04345	-0,0198078	
3,04345	-0,0198078	
3,07325	0,00802184	
3,07325	0,00802184	
3,10286	-0,034272	
3,10286	-0,034272	
3,13309	-0,0175614	
3,13309	-0,0175614	
3,16222	-0,0253695	
3,16222	-0,0253695	
3,19257	-0,0268865	
3,19257	-0,0268865	
3,22207	-0,0116093	
3,22207	-0,0116093	
3,25185	-0,0177975	
3,25185	-0,0177975	
3,28125	-0,0224569	
3,28125	-0,0224569	
3,31082	-0,0248951	
3,31082	-0,0248951	
3,34085	-0,0321342	
3,34085	-0,0321342	
3,3707	-0,0136845	
3,3707	-0,0136845	
3,40058	-0,0149921	
3,40058	-0,0149921	
3,43007	-0,0288414	
3,43007	-0,0288414	
3,46027	0,0185538	
3,46027	0,0185538	
3,48966	-0,0146592	
3,48966	-0,0146592	
3,51951	-0,024285	
3,51951	-0,024285	
3,54891	-0,0768415	
3,54891	-0,0768415	
3,57922	-0,000931876	
3,57922	-0,000931876	
3,60863	-0,0182272	
3,60863	-0,0182272	
3,63832	-0,0113152	
3,63832	-0,0113152	
3,66795	-0,0220513	
3,66795	-0,0220513	
3,698	-0,00914081	
3,698	-0,00914081	
3,72759	-0,0139682	
3,72759	-0,0139682	
3,75737	-0,0332592	
3,75737	-0,0332592	
3,78702	-0,019198	
3,78702	-0,019198	
3,81707	-0,0153342	
3,81707	-0,0153342	
3,84635	-0,0276988	
3,84635	-0,0276988	
3,87595	-0,02124	
3,87595	-0,02124	
3,90547	-0,00121981	
3,90547	-0,00121981	
3,93555	-0,0161598	
3,93555	-0,0161598	
3,96555	-0,0224771	
3,96555	-0,0224771	
3,99488	-0,0345544	
3,99488	-0,0345544	
4,02483	-0,0214209	
4,02483	-0,0214209	
4,05479	-0,02037	
4,05479	-0,02037	
4,08442	0,00718966	
4,08442	0,00718966	
4,11396	-0,0310076	
4,11396	-0,0310076	
4,14334	-0,0299778	
4,14334	-0,0299778	
4,17276	-0,00487786	
4,17276	-0,00487786	
4,20237	-0,00910265	
4,20237	-0,00910265	
4,23306	-0,00372416	
4,23306	-0,00372416	
4,2626	-0,0402424	
4,2626	-0,0402424	
4,29188	-0,0471147	
4,29188	-0,0471147	
4,32178	-0,0149077	
4,32178	-0,0149077	
4,35094	0,0117392	
4,35094	0,0117392	
4,38173	-0,00993939	
4,38173	-0,00993939	
4,41082	-0,0405854	
4,41082	-0,0405854	
4,44063	0,0131258	
4,44063	0,0131258	
4,47052	-0,0198554	
4,47052	-0,0198554	
4,50001	-0,03276	
4,50001	-0,03276	
4,52957	-0,0115718	
4,52957	-0,0115718	
4,55934	-0,0220193	
4,55934	-0,0220193	
4,58923	-0,0288792	
4,58923	-0,0288792	
4,61879	-0,0158709	
4,61879	-0,0158709	
4,64843	-0,0364079	
4,64843	-0,0364079	
4,67763	-0,0259265	
4,67763	-0,0259265	
4,70793	-0,0277053	
4,70793	-0,0277053	
4,73763	-0,00632634	
4,73763	-0,00632634	
4,76722	0,00173487	
4,76722	0,00173487	
4,79695	0,00235411	
4,79695	0,00235411	
4,82657	-0,0387199	
4,82657	-0,0387199	
4,85636	-0,0317351	
4,85636	-0,0317351	
4,88613	-0,0108537	
4,88613	-0,0108537	
4,91548	-0,0248439	
4,91548	-0,0248439	
4,94527	-0,00184883	
4,94527	-0,00184883	
4,97492	0,00965195	
4,97492	0,00965195	
5,0046	-0,0255531	
5,0046	-0,0255531	
5,03459	-0,0113429	
5,03459	-0,0113429	
5,06445	-0,040515	
5,06445	-0,040515	
5,0936	-0,00800309	
5,0936	-0,00800309	
5,1236	-0,00219351	
5,1236	-0,00219351	
5,15321	-0,00690776	
5,15321	-0,00690776	
5,18302	-0,0131882	
5,18302	-0,0131882	
5,21289	-0,0169545	
5,21289	-0,0169545	
5,24209	-0,0102717	
5,24209	-0,0102717	
5,2722	-0,000914594	
5,2722	-0,000914594	
5,30157	-0,0293031	
5,30157	-0,0293031	
5,33105	-0,0153035	
5,33105	-0,0153035	
5,36106	-0,0142287	
5,36106	-0,0142287	
5,39065	-0,0195489	
5,39065	-0,0195489	
5,4207	-0,0300257	
5,4207	-0,0300257	
5,45021	-0,023309	
5,45021	-0,023309	
5,47969	-0,0235428	
5,47969	-0,0235428	
5,50926	0,00249433	
5,50926	0,00249433	
5,53878	0,0059952	
5,53878	0,0059952	
5,56841	-0,0147247	
5,56841	-0,0147247	
5,59853	-0,00780515	
5,59853	-0,00780515	
5,62772	-0,0408055	
5,62772	-0,0408055	
5,65779	-0,0193063	
5,65779	-0,0193063	
5,68734	-0,0257905	
5,68734	-0,0257905	
5,71682	0,000948671	
5,71682	0,000948671	
5,74666	-0,0377703	
5,74666	-0,0377703	
5,7758	-0,0185563	
5,7758	-0,0185563	
5,80575	0,000464105	
5,80575	0,000464105	
5,83529	-0,0319819	
5,83529	-0,0319819	
5,86508	0,00783727	
5,86508	0,00783727	
5,89511	-0,0134073	
5,89511	-0,0134073	
5,92449	-0,0206184	
5,92449	-0,0206184	
5,95453	-0,011712	
5,95453	-0,011712	
5,98433	-0,0219097	
5,98433	-0,0219097	
6,01401	-0,018161	
6,01401	-0,018161	
6,04343	-0,0195642	
6,04343	-0,0195642	
6,07309	-0,0116787	
6,07309	-0,0116787	
6,10275	-0,00662928	
6,10275	-0,00662928	
6,13216	-0,0175177	
6,13216	-0,0175177	
6,16198	-0,0132146	
6,16198	-0,0132146	
6,19155	-0,00886624	
6,19155	-0,00886624	
6,22151	-0,00813841	
6,22151	-0,00813841	
6,25092	0,00157248	
6,25092	0,00157248	
6,28049	-0,0141877	
6,28049	-0,0141877	
6,31045	-0,0463383	
6,31045	-0,0463383	
6,34018	0,00922249	
6,34018	0,00922249	
6,37014	-0,0154669	
6,37014	-0,0154669	
6,39935	-0,0455094	
6,39935	-0,0455094	
6,42948	-0,0243049	
6,42948	-0,0243049	
6,45866	-0,00533341	
6,45866	-0,00533341	
6,48901	-0,0105674	
6,48901	-0,0105674	
6,51827	-0,0101386	
6,51827	-0,0101386	
6,54816	0,0102784	
6,54816	0,0102784	
6,57755	-0,0578166	
6,57755	-0,0578166	
6,6075	-0,00959146	
6,6075	-0,00959146	
6,63666	-0,0304285	
6,63666	-0,0304285	
6,66696	-0,00547525	
6,66696	-0,00547525	
6,69639	-0,0241288	
6,69639	-0,0241288	
6,72616	-0,0286382	
6,72616	-0,0286382	
6,75558	-0,00470797	
6,75558	-0,00470797	
6,78537	-0,0271304	
6,78537	-0,0271304	
6,81529	0,00096791	
6,81529	0,00096791	
6,84498	-0,0196721	
6,84498	-0,0196721	
6,87467	0,0105745	
6,87467	0,0105745	
6,90434	-0,0317123	
6,90434	-0,0317123	
6,93377	-0,0309388	
6,93377	-0,0309388	
6,9635	-0,0133297	
6,9635	-0,0133297	
6,99352	-0,00613493	
6,99352	-0,00613493	
7,02338	-0,0198756	
7,02338	-0,0198756	
7,05314	-0,0137126	
7,05314	-0,0137126	
7,08298	-0,0138068	
7,08298	-0,0138068	
7,11254	-0,00395993	
7,11254	-0,00395993	
7,14259	-0,0250982	
7,14259	-0,0250982	
7,17192	-0,00572439	
7,17192	-0,00572439	
7,20112	-0,0249727	
7,20112	-0,0249727	
7,23082	0,00698944	
7,23082	0,00698944	
7,26061	-0,027435	
7,26061	-0,027435	
7,29023	-0,0283995	
7,29023	-0,0283995	
7,32006	-0,0179625	
7,32006	-0,0179625	
7,34971	-0,0144834	
7,34971	-0,0144834	
7,37926	-0,0399952	
7,37926	-0,0399952	
7,40912	-0,0042909	
7,40912	-0,0042909	
7,43842	-0,00157623	
7,43842	-0,00157623	
7,46807	-0,00577591	
7,46807	-0,00577591	
7,49744	-0,0036159	
7,49744	-0,0036159	
7,52733	-0,00802004	
7,52733	-0,00802004	
7,55739	-0,020984	
7,55739	-0,020984	
7,58715	-0,0345613	
7,58715	-0,0345613	
7,61674	-0,0289656	
7,61674	-0,0289656	
7,64606	-0,0100098	
7,64606	-0,0100098	
7,67607	0,00445509	
7,67607	0,00445509	
7,70528	0,0069839	
7,70528	0,0069839	
7,7354	-0,00429221	
7,7354	-0,00429221	
7,76485	-0,0183508	
7,76485	-0,0183508	
7,79444	-0,0477545	
7,79444	-0,0477545	
7,82359	0,0067214	
7,82359	0,0067214	
7,85342	-0,0151708	
7,85342	-0,0151708	
7,88272	-0,0259138	
7,88272	-0,0259138	
7,91293	-0,000176984	
7,91293	-0,000176984	
7,94295	-0,0176866	
7,94295	-0,0176866	
7,97213	-0,010107	
7,97213	-0,010107	
8,00228	-0,0159753	
8,00228	-0,0159753	
8,03128	-0,0142499	
8,03128	-0,0142499	
8,06101	-0,0208728	
8,06101	-0,0208728	
8,09042	-0,00521047	
8,09042	-0,00521047	
8,11982	-0,00416732	
8,11982	-0,00416732	
8,14982	-0,0198528	
8,14982	-0,0198528	
8,17988	0,00379378	
8,17988	0,00379378	
8,20943	-0,00937885	
8,20943	-0,00937885	
8,2391	-0,0121989	
8,2391	-0,0121989	
8,26856	-0,00936776	
8,26856	-0,00936776	
8,2986	-0,00247199	
8,2986	-0,00247199	
8,32739	-0,0282042	
8,32739	-0,0282042	
8,35753	-0,011906	
8,35753	-0,011906	
8,3873	-0,0348776	
8,3873	-0,0348776	
8,41705	-0,0104181	
8,41705	-0,0104181	
8,44674	0,00232541	
8,44674	0,00232541	
8,47629	-0,0194429	
8,47629	-0,0194429	
8,50578	-0,00991755	
8,50578	-0,00991755	
8,53552	-0,0215462	
8,53552	-0,0215462	
8,56522	-0,00398862	
8,56522	-0,00398862	
8,59504	-0,0202747	
8,59504	-0,0202747	
8,62434	-0,0105665	
8,62434	-0,0105665	
8,65402	-0,0116145	
8,65402	-0,0116145	
8,68393	-0,0219329	
8,68393	-0,0219329	
8,71325	-0,0135932	
8,71325	-0,0135932	
8,74284	-0,0205656	
8,74284	-0,0205656	
8,77239	-0,0244203	
8,77239	-0,0244203	
8,80196	-0,00625754	
8,80196	-0,00625754	
8,8317	-0,00405025	
8,8317	-0,00405025	
8,86089	-0,0384492	
8,86089	-0,0384492	
8,89088	0,00696303	
8,89088	0,00696303	
8,92036	-0,0164324	
8,92036	-0,0164324	
8,95005	-0,0265578	
8,95005	-0,0265578	
8,97989	-0,00221797	
8,97989	-0,00221797	
9,00962	-0,00154068	
9,00962	-0,00154068	
9,03955	-0,0323935	
9,03955	-0,0323935	
9,06891	-0,0121721	
9,06891	-0,0121721	
9,0983	-0,029712	
9,0983	-0,029712	
9,12816	-0,00768124	
9,12816	-0,00768124	
9,15752	-0,00680634	
9,15752	-0,00680634	
9,18713	-0,00270253	
9,18713	-0,00270253	
9,21692	0,00937184	
9,21692	0,00937184	
9,24652	-0,0185347	
9,24652	-0,0185347	
9,27624	-0,0267208	
9,27624	-0,0267208	
9,30554	-0,00644895	
9,30554	-0,00644895	
9,33559	-0,0145053	
9,33559	-0,0145053	
9,36515	-0,0068158	
9,36515	-0,0068158	
9,39474	-0,0268324	
9,39474	-0,0268324	
9,42434	-0,0119236	
9,42434	-0,0119236	
9,45369	-0,0124242	
9,45369	-0,0124242	
9,48356	0,00791879	
9,48356	0,00791879	
9,51333	-0,030616	
9,51333	-0,030616	
9,54237	-0,0179566	
9,54237	-0,0179566	
9,57204	0,00344618	
9,57204	0,00344618	
9,60207	-0,0257211	
9,60207	-0,0257211	
9,63186	-0,027883	
9,63186	-0,027883	
9,66108	-0,0227827	
9,66108	-0,0227827	
9,69065	-0,00318025	
9,69065	-0,00318025	
9,72075	-0,0105234	
9,72075	-0,0105234	
9,75038	-0,00872309	
9,75038	-0,00872309	
9,78004	-0,014683	
9,78004	-0,014683	
9,80937	-0,0168916	
9,80937	-0,0168916	
9,83926	-0,00285775	
9,83926	-0,00285775	
9,86892	-0,0247412	
9,86892	-0,0247412	
9,89862	-0,00171318	
9,89862	-0,00171318	
9,92774	-0,0194445	
9,92774	-0,0194445	
9,95725	-0,0188223	
9,95725	-0,0188223	
9,98668	0,00453205	
9,98668	0,00453205	
10,0173	-0,0330818	
10,0173	-0,0330818	
10,0467	-0,0102257	
10,0467	-0,0102257	
10,0762	-0,00538134	
10,0762	-0,00538134	
10,1056	-0,0179025	
10,1056	-0,0179025	
10,1357	-0,00121688	
10,1357	-0,00121688	
10,1654	-0,00858906	
10,1654	-0,00858906	
10,1948	-0,019482	
10,1948	-0,019482	
10,2242	-0,0229982	
10,2242	-0,0229982	
10,2539	-0,0202787	
10,2539	-0,0202787	
10,2838	-0,0212765	
10,2838	-0,0212765	
10,3137	-0,0277718	
10,3137	-0,0277718	
10,3432	-0,0224977	
10,3432	-0,0224977	
10,3729	-0,0166731	
10,3729	-0,0166731	
10,402	-0,0121597	
10,402	-0,0121597	
10,432	-0,010634	
10,432	-0,010634	
10,4617	0,00329128	
10,4617	0,00329128	
10,4916	-0,015493	
10,4916	-0,015493	
10,5206	-0,0145819	
10,5206	-0,0145819	
10,5504	-0,0102153	
10,5504	-0,0102153	
10,5799	-0,0114192	
10,5799	-0,0114192	
10,6097	-0,0119191	
10,6097	-0,0119191	
10,6394	0,00147237	
10,6394	0,00147237	
10,6689	-0,0140308	
10,6689	-0,0140308	
10,6985	-0,0237903	
10,6985	-0,0237903	
10,7283	0,000452365	
10,7283	0,000452365	
10,7579	-0,0274314	
10,7579	-0,0274314	
10,7874	-0,0186423	
10,7874	-0,0186423	
10,8172	-0,0139239	
10,8172	-0,0139239	
10,8464	-0,0148982	
10,8464	-0,0148982	
10,8761	-0,00583884	
10,8761	-0,00583884	
10,9057	-0,0157464	
10,9057	-0,0157464	
10,9357	-0,0141371	
10,9357	-0,0141371	
10,9651	-0,00398014	
10,9651	-0,00398014	
10,9951	0,00483466	
10,9951	0,00483466	
11,0243	-0,020548	
11,0243	-0,020548	
11,0545	-0,0078358	
11,0545	-0,0078358	
11,0838	-0,0180345	
11,0838	-0,0180345	
11,1137	-0,00962863	
11,1137	-0,00962863	
11,1434	-0,0196656	
11,1434	-0,0196656	
11,1725	-0,00136199	
11,1725	-0,00136199	
11,2021	-0,0252844	
11,2021	-0,0252844	
11,2319	-0,00986798	
11,2319	-0,00986798	
11,2615	-0,0185644	
11,2615	-0,0185644	
11,2913	-0,00825646	
11,2913	-0,00825646	
11,3207	-0,0186361	
11,3207	-0,0186361	
11,3506	-0,0127124	
11,3506	-0,0127124	
11,3794	-0,0052183	
11,3794	-0,0052183	
11,4091	-0,00735776	
11,4091	-0,00735776	
11,4392	-0,0153335	
11,4392	-0,0153335	
11,4685	-0,0112535	
11,4685	-0,0112535	
11,4983	-0,00608471	
11,4983	-0,00608471	
11,5275	-0,0191889	
11,5275	-0,0191889	
11,5576	-0,0116285	
11,5576	-0,0116285	
11,5872	-0,00332014	
11,5872	-0,00332014	
11,6166	-0,0162192	
11,6166	-0,0162192	
11,6463	-0,0170031	
11,6463	-0,0170031	
11,676	-0,0180798	
11,676	-0,0180798	
11,7055	-0,0220901	
11,7055	-0,0220901	
11,7353	-0,00849711	
11,7353	-0,00849711	
11,7646	0,0135862	
11,7646	0,0135862	
11,7945	0,011601	
11,7945	0,011601	
11,8243	-0,00346492	
11,8243	-0,00346492	
11,8535	0,0281829	
11,8535	0,0281829	
11,8832	0,0110108	
11,8832	0,0110108	
11,9131	0,0330879	
11,9131	0,0330879	
11,9424	0,0492788	
11,9424	0,0492788	
11,972	0,0446382	
11,972	0,0446382	
12,0014	0,0600439	
12,0014	0,0600439	
12,031	0,0529058	
12,031	0,0529058	
12,0606	0,0700186	
12,0606	0,0700186	
12,0904	0,0500637	
12,0904	0,0500637	
12,1201	0,0681723	
12,1201	0,0681723	
12,15	0,0891674	
12,15	0,0891674	
12,1792	0,0443966	
12,1792	0,0443966	
12,2086	0,0481071	
12,2086	0,0481071	
12,2385	-0,00201547	
12,2385	-0,00201547	
12,2683	0,0458157	
12,2683	0,0458157	
12,2976	0,0626598	
12,2976	0,0626598	
12,3275	0,0288422	
12,3275	0,0288422	
12,357	0,0233356	
12,357	0,0233356	
12,3864	-0,0188266	
12,3864	-0,0188266	
12,4162	-0,00511917	
12,4162	-0,00511917	
12,4457	-0,00611113	
12,4457	-0,00611113	
12,4751	-0,00867678	
12,4751	-0,00867678	
12,5049	-0,0302967	
12,5049	-0,0302967	
12,535	-0,0261828	
12,535	-0,0261828	
12,5641	-0,00585906	
12,5641	-0,00585906	
12,5937	0,00591792	
12,5937	0,00591792	
12,6233	-0,0342248	
12,6233	-0,0342248	
12,6531	0,00626357	
12,6531	0,00626357	
12,6823	-0,0207313	
12,6823	-0,0207313	
12,712	-0,00914374	
12,712	-0,00914374	
12,7418	0,00227324	
12,7418	0,00227324	
12,7718	-0,00342025	
12,7718	-0,00342025	
12,8013	-0,00897809	
12,8013	-0,00897809	
12,8309	0,0128368	
12,8309	0,0128368	
12,8602	0,0175478	
12,8602	0,0175478	
12,8895	0,0461017	
12,8895	0,0461017	
12,9194	0,0358922	
12,9194	0,0358922	
12,9493	0,0397837	
12,9493	0,0397837	
12,9785	0,0267794	
12,9785	0,0267794	
13,0092	0,0510383	
13,0092	0,0510383	
13,0386	0,0537651	
13,0386	0,0537651	
13,0679	0,0665575	
13,0679	0,0665575	
13,0972	0,0786041	
13,0972	0,0786041	
13,1267	0,0657491	
13,1267	0,0657491	
13,1565	0,0605184	
13,1565	0,0605184	
13,1858	0,0456201	
13,1858	0,0456201	
13,2159	0,0588833	
13,2159	0,0588833	
13,2448	0,0397361	
13,2448	0,0397361	
13,2746	0,0384853	
13,2746	0,0384853	
13,3034	0,0391003	
13,3034	0,0391003	
13,3334	0,0344806	
13,3334	0,0344806	
13,3629	0,00823314	
13,3629	0,00823314	
13,3925	0,0222455	
13,3925	0,0222455	
13,4226	0,003529	
13,4226	0,003529	
13,4522	-0,00858385	
13,4522	-0,00858385	
13,4819	-0,0169715	
13,4819	-0,0169715	
13,5118	-0,0382275	
13,5118	-0,0382275	
13,5413	-0,0125481	
13,5413	-0,0125481	
13,5709	0,0112305	
13,5709	0,0112305	
13,6001	0,00178215	
13,6001	0,00178215	
13,6302	-0,0209015	
13,6302	-0,0209015	
13,6599	0,000802584	
13,6599	0,000802584	
13,6898	0,0166876	
13,6898	0,0166876	
13,7196	-0,00646069	
13,7196	-0,00646069	
13,7492	0,00206617	
13,7492	0,00206617	
13,7792	0,0194095	
13,7792	0,0194095	
13,8084	0,0291383	
13,8084	0,0291383	
13,8382	0,0222803	
13,8382	0,0222803	
13,8674	0,0531895	
13,8674	0,0531895	
13,897	0,0610326	
13,897	0,0610326	
13,9262	0,104412	
13,9262	0,104412	
13,9568	0,123847	
13,9568	0,123847	
13,9861	0,108066	
13,9861	0,108066	
14,0158	0,131444	
14,0158	0,131444	
14,0455	0,15145	
14,0455	0,15145	
14,0743	0,134933	
14,0743	0,134933	
14,1041	0,137393	
14,1041	0,137393	
14,1335	0,144527	
14,1335	0,144527	
14,1626	0,128171	
14,1626	0,128171	
14,1933	0,107699	
14,1933	0,107699	
14,2225	0,170569	
14,2225	0,170569	
14,2522	0,105199	
14,2522	0,105199	
14,2821	0,103445	
14,2821	0,103445	
14,3116	0,0783475	
14,3116	0,0783475	
14,341	0,0856512	
14,341	0,0856512	
14,3705	0,0621729	
14,3705	0,0621729	
14,4008	0,0265893	
14,4008	0,0265893	
14,4304	-0,0139033	
14,4304	-0,0139033	
14,4594	-0,0095957	
14,4594	-0,0095957	
14,4885	-0,00429319	
14,4885	-0,00429319	
14,5185	-0,0254497	
14,5185	-0,0254497	
14,5482	-0,00877102	
14,5482	-0,00877102	
14,5777	0,000490844	
14,5777	0,000490844	
14,6076	-0,0153577	
14,6076	-0,0153577	
14,6374	-0,010767	
14,6374	-0,010767	
14,6662	0,0160116	
14,6662	0,0160116	
14,6964	0,00556835	
14,6964	0,00556835	
14,7254	0,033335	
14,7254	0,033335	
14,7552	0,0232834	
14,7552	0,0232834	
14,7848	0,0382068	
14,7848	0,0382068	
14,8144	0,0566986	
14,8144	0,0566986	
14,8443	0,0869712	
14,8443	0,0869712	
14,8737	0,143703	
14,8737	0,143703	
14,903	0,185103	
14,903	0,185103	
14,9331	0,231088	
14,9331	0,231088	
14,9618	0,25297	
14,9618	0,25297	
14,9918	0,316002	
14,9918	0,316002	
15,0215	0,327101	
15,0215	0,327101	
15,051	0,326534	
15,051	0,326534	
15,0812	0,363076	
15,0812	0,363076	
15,1107	0,378366	
15,1107	0,378366	
15,1399	0,370018	
15,1399	0,370018	
15,1699	0,349691	
15,1699	0,349691	
15,1997	0,34703	
15,1997	0,34703	
15,2291	0,324626	
15,2291	0,324626	
15,2585	0,312583	
15,2585	0,312583	
15,2884	0,29506	
15,2884	0,29506	
15,3173	0,264782	
15,3173	0,264782	
15,3474	0,221637	
15,3474	0,221637	
15,3768	0,162429	
15,3768	0,162429	
15,4065	0,117252	
15,4065	0,117252	
15,4359	0,0152104	
15,4359	0,0152104	
15,4656	-0,00945059	
15,4656	-0,00945059	
15,4952	-0,0206031	
15,4952	-0,0206031	
15,5246	-0,00879124	
15,5246	-0,00879124	
15,5542	-0,0180505	
15,5542	-0,0180505	
15,5839	-0,019889	
15,5839	-0,019889	
15,6137	-0,0189626	
15,6137	-0,0189626	
15,6432	-0,00992178	
15,6432	-0,00992178	
15,6728	-0,00626047	
15,6728	-0,00626047	
15,7021	-0,00175231	
15,7021	-0,00175231	
15,7318	-0,00325232	
15,7318	-0,00325232	
15,7613	0,00629781	
15,7613	0,00629781	
15,7906	0,00616151	
15,7906	0,00616151	
15,8206	0,0516152	
15,8206	0,0516152	
15,85	0,0564993	
15,85	0,0564993	
15,8799	0,0691075	
15,8799	0,0691075	
15,9098	0,0992191	
15,9098	0,0992191	
15,9388	0,12667	
15,9388	0,12667	
15,9688	0,138861	
15,9688	0,138861	
15,9982	0,16418	
15,9982	0,16418	
16,028	0,169076	
16,028	0,169076	
16,0578	0,180161	
16,0578	0,180161	
16,0875	0,187919	
16,0875	0,187919	
16,1167	0,196172	
16,1167	0,196172	
16,1463	0,200258	
16,1463	0,200258	
16,1751	0,194534	
16,1751	0,194534	
16,2052	0,159293	
16,2052	0,159293	
16,2348	0,186696	
16,2348	0,186696	
16,2644	0,177049	
16,2644	0,177049	
16,2941	0,159608	
16,2941	0,159608	
16,324	0,136231	
16,324	0,136231	
16,3528	0,117405	
16,3528	0,117405	
16,383	0,0771032	
16,383	0,0771032	
16,4121	0,0759087	
16,4121	0,0759087	
16,4419	0,00594955	
16,4419	0,00594955	
16,4716	-0,00234416	
16,4716	-0,00234416	
16,5011	-0,00769558	
16,5011	-0,00769558	
16,5309	-0,0166979	
16,5309	-0,0166979	
16,5604	-0,0213335	
16,5604	-0,0213335	
16,59	0,00297987	
16,59	0,00297987	
16,6195	-0,0230885	
16,6195	-0,0230885	
16,6491	-0,00474938	
16,6491	-0,00474938	
16,6788	-0,0142473	
16,6788	-0,0142473	
16,7088	0,00455976	
16,7088	0,00455976	
16,738	-0,00976689	
16,738	-0,00976689	
16,7679	-0,00902211	
16,7679	-0,00902211	
16,7971	0,00938945	
16,7971	0,00938945	
16,8274	0,0125822	
16,8274	0,0125822	
16,8566	0,0328951	
16,8566	0,0328951	
16,8859	0,0243305	
16,8859	0,0243305	
16,9161	0,0467431	
16,9161	0,0467431	
16,9456	0,0521242	
16,9456	0,0521242	
16,975	0,0560258	
16,975	0,0560258	
17,0052	0,0812461	
17,0052	0,0812461	
17,0345	0,0845621	
17,0345	0,0845621	
17,0638	0,0694496	
17,0638	0,0694496	
17,0935	0,0713774	
17,0935	0,0713774	
17,1231	0,0825407	
17,1231	0,0825407	
17,1532	0,0818471	
17,1532	0,0818471	
17,1826	0,0865274	
17,1826	0,0865274	
17,2117	0,0901428	
17,2117	0,0901428	
17,2412	0,0816309	
17,2412	0,0816309	
17,2711	0,072386	
17,2711	0,072386	
17,3008	0,0751675	
17,3008	0,0751675	
17,3302	0,0561546	
17,3302	0,0561546	
17,3602	0,0290881	
17,3602	0,0290881	
17,3901	0,0127204	
17,3901	0,0127204	
17,4193	0,0305271	
17,4193	0,0305271	
17,4485	-0,00241655	
17,4485	-0,00241655	
17,4779	-0,025229	
17,4779	-0,025229	
17,5076	-0,00790167	
17,5076	-0,00790167	
17,5368	-0,000876441	
17,5368	-0,000876441	
17,5665	-0,000406549	
17,5665	-0,000406549	
17,5967	-0,00854537	
17,5967	-0,00854537	
17,6259	-0,0140106	
17,6259	-0,0140106	
17,6555	-0,00156481	
17,6555	-0,00156481	
17,6854	-0,00132481	
17,6854	-0,00132481	
17,7153	0,011643	
17,7153	0,011643	
17,7446	0,0416043	
17,7446	0,0416043	
17,774	0,0189653	
17,774	0,0189653	
17,8029	0,0343113	
17,8029	0,0343113	
17,8335	0,0780723	
17,8335	0,0780723	
17,8625	0,134256	
17,8625	0,134256	
17,8921	0,169288	
17,8921	0,169288	
17,9219	0,174006	
17,9219	0,174006	
17,9517	0,209287	
17,9517	0,209287	
17,9816	0,255812	
17,9816	0,255812	
18,011	0,274004	
18,011	0,274004	
18,0404	0,281669	
18,0404	0,281669	
18,0697	0,314306	
18,0697	0,314306	
18,0998	0,297892	
18,0998	0,297892	
18,1288	0,329083	
18,1288	0,329083	
18,159	0,327433	
18,159	0,327433	
18,1882	0,31774	
18,1882	0,31774	
18,218	0,306321	
18,218	0,306321	
18,2474	0,305447	
18,2474	0,305447	
18,2772	0,277368	
18,2772	0,277368	
18,3067	0,252281	
18,3067	0,252281	
18,3355	0,228063	
18,3355	0,228063	
18,3655	0,225687	
18,3655	0,225687	
18,3956	0,142144	
18,3956	0,142144	
18,4253	0,0996485	
18,4253	0,0996485	
18,4547	0,0376029	
18,4547	0,0376029	
18,4851	-0,0117107	
18,4851	-0,0117107	
18,5138	-0,00964755	
18,5138	-0,00964755	
18,5433	-0,0258417	
18,5433	-0,0258417	
18,573	-0,042779	
18,573	-0,042779	
18,6027	-0,00828483	
18,6027	-0,00828483	
18,6325	-0,0156052	
18,6325	-0,0156052	
18,6617	-0,0181248	
18,6617	-0,0181248	
18,691	-0,00510384	
18,691	-0,00510384	
18,7211	0,00534401	
18,7211	0,00534401	
18,7505	-0,0152165	
18,7505	-0,0152165	
18,7798	-0,0273544	
18,7798	-0,0273544	
18,8088	-0,0247953	
18,8088	-0,0247953	
18,8396	0,0100834	
18,8396	0,0100834	
18,8686	-0,00693319	
18,8686	-0,00693319	
18,8977	0,0169015	
18,8977	0,0169015	
18,9279	0,0132673	
18,9279	0,0132673	
18,9572	0,000299756	
18,9572	0,000299756	
18,9865	0,0393184	
18,9865	0,0393184	
19,0164	0,0188809	
19,0164	0,0188809	
19,0462	0,0351973	
19,0462	0,0351973	
19,0754	0,0244449	
19,0754	0,0244449	
19,105	0,0418133	
19,105	0,0418133	
19,1346	0,0487662	
19,1346	0,0487662	
19,164	0,0310645	
19,164	0,0310645	
19,1938	0,0489298	
19,1938	0,0489298	
19,2233	0,0585475	
19,2233	0,0585475	
19,2527	0,0496283	
19,2527	0,0496283	
19,2824	0,0310971	
19,2824	0,0310971	
19,3124	0,0368229	
19,3124	0,0368229	
19,3414	0,0236147	
19,3414	0,0236147	
19,3717	-0,00403525	
19,3717	-0,00403525	
19,4011	0,0185923	
19,4011	0,0185923	
19,4307	0,0491979	
19,4307	0,0491979	
19,4604	-0,0264437	
19,4604	-0,0264437	
19,4894	-0,0173465	
19,4894	-0,0173465	
19,5186	-0,025362	
19,5186	-0,025362	
19,548	-0,0135802	
19,548	-0,0135802	
19,5779	-0,0335638	
19,5779	-0,0335638	
19,6076	-0,00591091	
19,6076	-0,00591091	
19,6373	-0,0109509	
19,6373	-0,0109509	
19,6671	-0,0167465	
19,6671	-0,0167465	
19,6967	-0,00301264	
19,6967	-0,00301264	
19,7261	-0,0280346	
19,7261	-0,0280346	
19,7557	0,00817836	
19,7557	0,00817836	
19,7854	-0,00550656	
19,7854	-0,00550656	
19,8149	0,00304965	
19,8149	0,00304965	
19,8443	-0,0141237	
19,8443	-0,0141237	
19,8739	0,00739249	
19,8739	0,00739249	
19,9035	0,0111895	
19,9035	0,0111895	
19,9333	0,00523868	
19,9333	0,00523868	
19,9628	0,00366465	
19,9628	0,00366465	
19,9924	0,0404526	
19,9924	0,0404526	
20,022	0,0101019	
20,022	0,0101019	
20,0515	0,0184824	
20,0515	0,0184824	
20,0812	0,00701423	
20,0812	0,00701423	
20,1108	0,00960858	
20,1108	0,00960858	
20,1403	0,0258327	
20,1403	0,0258327	
20,1701	0,0375269	
20,1701	0,0375269	
20,1997	0,0225181	
20,1997	0,0225181	
20,2293	0,0539666	
20,2293	0,0539666	
20,2591	0,00968619	
20,2591	0,00968619	
20,2887	-0,00622558	
20,2887	-0,00622558	
20,3178	0,0343479	
20,3178	0,0343479	
20,3483	0,014028	
20,3483	0,014028	
20,3778	0,0170662	
20,3778	0,0170662	
20,4069	0,0225132	
20,4069	0,0225132	
20,4369	-0,010225	
20,4369	-0,010225	
20,467	-0,00322036	
20,467	-0,00322036	
20,4963	-0,0130173	
20,4963	-0,0130173	
20,5257	-0,0211734	
20,5257	-0,0211734	
20,5548	-0,0109946	
20,5548	-0,0109946	
20,5847	-0,00817298	
20,5847	-0,00817298	
20,6144	-0,0165609	
20,6144	-0,0165609	
20,644	-0,0186984	
20,644	-0,0186984	
20,6737	-0,0147903	
20,6737	-0,0147903	
20,7035	0,00438792	
20,7035	0,00438792	
20,7328	-0,016241	
20,7328	-0,016241	
20,7626	-0,0161096	
20,7626	-0,0161096	
20,7914	-0,00594254	
20,7914	-0,00594254	
20,8208	-0,0223421	
20,8208	-0,0223421	
20,8506	-0,014306	
20,8506	-0,014306	
20,8805	-0,00810156	
20,8805	-0,00810156	
20,91	-0,0357636	
20,91	-0,0357636	
20,9399	-0,0213681	
20,9399	-0,0213681	
20,969	-0,0135401	
20,969	-0,0135401	
20,9988	-0,0227422	
20,9988	-0,0227422	
21,0285	-0,0141453	
21,0285	-0,0141453	
21,0583	-0,00102383	
21,0583	-0,00102383	
21,0882	0,000747149	
21,0882	0,000747149	
21,1172	-0,0273851	
21,1172	-0,0273851	
21,147	-0,0086595	
21,147	-0,0086595	
21,1767	-0,0113712	
21,1767	-0,0113712	
21,2056	-0,00807417	
21,2056	-0,00807417	
21,2358	-0,0244356	
21,2358	-0,0244356	
21,2653	-0,00363058	
21,2653	-0,00363058	
21,2946	-0,0140882	
21,2946	-0,0140882	
21,3245	-0,0173282	
21,3245	-0,0173282	
21,3542	-0,00689015	
21,3542	-0,00689015	
21,383	-0,0194667	
21,383	-0,0194667	
21,4129	0,000876932	
21,4129	0,000876932	
21,4427	-0,00465091	
21,4427	-0,00465091	
21,4719	-0,00447906	
21,4719	-0,00447906	
21,5017	-0,0188142	
21,5017	-0,0188142	
21,5314	-0,0121901	
21,5314	-0,0121901	
21,5609	-0,0101683	
21,5609	-0,0101683	
21,5904	0,00855303	
21,5904	0,00855303	
21,62	-0,0310161	
21,62	-0,0310161	
21,6491	-0,00189481	
21,6491	-0,00189481	
21,6788	-0,0374569	
21,6788	-0,0374569	
21,7085	-0,0224974	
21,7085	-0,0224974	
21,738	-0,011097	
21,738	-0,011097	
21,7684	-0,0062171	
21,7684	-0,0062171	
21,7977	-0,0176986	
21,7977	-0,0176986	
21,8272	-0,0128139	
21,8272	-0,0128139	
21,8568	-0,0214366	
21,8568	-0,0214366	
21,8863	-0,00891841	
21,8863	-0,00891841	
21,9158	-0,0256278	
21,9158	-0,0256278	
21,9457	-0,0248683	
21,9457	-0,0248683	
21,9751	0,0183699	
21,9751	0,0183699	
22,0044	-0,000504375	
22,0044	-0,000504375	
22,0339	-0,00471841	
22,0339	-0,00471841	
22,0633	-0,0270649	
22,0633	-0,0270649	
22,0935	-0,00085492	
22,0935	-0,00085492	
22,1231	-0,007842	
22,1231	-0,007842	
22,1528	-0,0122393	
22,1528	-0,0122393	
22,1821	0,00354302	
22,1821	0,00354302	
22,2116	-0,0548844	
22,2116	-0,0548844	
22,2411	0,00552629	
22,2411	0,00552629	
22,2703	0,00535835	
22,2703	0,00535835	
22,3002	-0,0238125	
22,3002	-0,0238125	
22,3295	-0,0216913	
22,3295	-0,0216913	
22,3591	-0,00196297	
22,3591	-0,00196297	
22,3892	-0,0211666	
22,3892	-0,0211666	
22,4185	-0,0206817	
22,4185	-0,0206817	
22,4479	-0,00355166	
22,4479	-0,00355166	
22,4772	0,00142835	
22,4772	0,00142835	
22,5068	-0,0534767	
22,5068	-0,0534767	
22,5363	-0,0170475	
22,5363	-0,0170475	
22,5662	0,0152209	
22,5662	0,0152209	
22,5957	-0,0257178	
22,5957	-0,0257178	
22,6256	0,000996606	
22,6256	0,000996606	
22,6551	-0,00939418	
22,6551	-0,00939418	
22,6846	-0,000331549	
22,6846	-0,000331549	
22,7144	-0,0210939	
22,7144	-0,0210939	
22,7439	-0,0387244	
22,7439	-0,0387244	
22,7734	-0,018326	
22,7734	-0,018326	
22,8025	0,00531661	
22,8025	0,00531661	
22,8318	0,00501335	
22,8318	0,00501335	
22,8616	-0,0411809	
22,8616	-0,0411809	
22,8913	0,00359324	
22,8913	0,00359324	
22,9206	-0,00936287	
22,9206	-0,00936287	
22,9502	-0,0260964	
22,9502	-0,0260964	
22,9803	-0,0011559	
22,9803	-0,0011559	
23,0102	-0,0208793	
23,0102	-0,0208793	
23,0398	0,00396922	
23,0398	0,00396922	
23,0693	-0,0599257	
23,0693	-0,0599257	
23,0991	0,00312987	
23,0991	0,00312987	
23,1286	-0,0202663	
23,1286	-0,0202663	
23,1579	-0,0154894	
23,1579	-0,0154894	
23,1878	-0,00212992	
23,1878	-0,00212992	
23,2172	-0,0153626	
23,2172	-0,0153626	
23,2469	-0,0234883	
23,2469	-0,0234883	
23,2762	-0,00529917	
23,2762	-0,00529917	
23,3053	-0,00482862	
23,3053	-0,00482862	
23,3349	-0,017429	
23,3349	-0,017429	
23,3651	-0,0163392	
23,3651	-0,0163392	
23,3948	-0,0245106	
23,3948	-0,0245106	
23,424	-0,0189208	
23,424	-0,0189208	
23,4536	-0,00436917	
23,4536	-0,00436917	
23,4833	-0,0161549	
23,4833	-0,0161549	
23,5131	-0,00713732	
23,5131	-0,00713732	
23,5424	-0,0125595	
23,5424	-0,0125595	
23,5717	-0,0145307	
23,5717	-0,0145307	
23,6019	-0,0223813	
23,6019	-0,0223813	
23,6313	0,000243669	
23,6313	0,000243669	
23,6608	-0,00629471	
23,6608	-0,00629471	
23,6903	-0,0112793	
23,6903	-0,0112793	
23,7199	-0,0140973	
23,7199	-0,0140973	
23,7495	-0,000793615	
23,7495	-0,000793615	
23,7792	-0,0259421	
23,7792	-0,0259421	
23,8087	-0,00810711	
23,8087	-0,00810711	
23,8385	-0,00887211	
23,8385	-0,00887211	
23,8679	-0,00570939	
23,8679	-0,00570939	
23,8977	-0,0327114	
23,8977	-0,0327114	
23,9269	-0,00275992	
23,9269	-0,00275992	
23,9568	0,00974456	
23,9568	0,00974456	
23,986	0,00111041	
23,986	0,00111041	
24,0155	0,0171487	
24,0155	0,0171487	
24,045	-0,00578928	
24,045	-0,00578928	
24,0749	0,00267954	
24,0749	0,00267954	
24,1044	-0,0251732	
24,1044	-0,0251732	
24,1337	-0,00367819	
24,1337	-0,00367819	
24,1634	0,0286893	
24,1634	0,0286893	
24,1928	-0,0118108	
24,1928	-0,0118108	
24,2225	0,00999401	
24,2225	0,00999401	
24,2524	0,0286821	
24,2524	0,0286821	
24,2818	0,00462466	
24,2818	0,00462466	
24,3112	0,00975793	
24,3112	0,00975793	
24,3407	0,0139726	
24,3407	0,0139726	
24,3707	-0,00415525	
24,3707	-0,00415525	
24,3998	-0,00504612	
24,3998	-0,00504612	
24,4296	-0,00781395	
24,4296	-0,00781395	
24,4591	0,0338069	
24,4591	0,0338069	
24,4889	0,00478998	
24,4889	0,00478998	
24,5184	-0,00439004	
24,5184	-0,00439004	
24,5475	-0,0191879	
24,5475	-0,0191879	
24,5776	0,0103358	
24,5776	0,0103358	
24,6071	-0,013841	
24,6071	-0,013841	
24,6368	-0,00961428	
24,6368	-0,00961428	
24,6661	-0,0261991	
24,6661	-0,0261991	
24,6955	0,00623096	
24,6955	0,00623096	
24,7255	-0,00759385	
24,7255	-0,00759385	
24,7546	-0,0113435	
24,7546	-0,0113435	
24,7843	-0,00708548	
24,7843	-0,00708548	
24,8137	0,00539129	
24,8137	0,00539129	
24,8436	0,00818521	
24,8436	0,00818521	
24,8728	0,00636792	
24,8728	0,00636792	
24,9027	0,0132001	
24,9027	0,0132001	
24,9319	0,017737	
24,9319	0,017737	
24,9616	0,00997445	
24,9616	0,00997445	
24,9913	0,0120741	
24,9913	0,0120741	
25,0205	0,0457241	
25,0205	0,0457241	
25,0504	0,0466903	
25,0504	0,0466903	
25,0796	0,0504325	
25,0796	0,0504325	
25,1099	0,0560402	
25,1099	0,0560402	
25,1396	0,0628381	
25,1396	0,0628381	
25,1688	0,0723762	
25,1688	0,0723762	
25,1982	0,0555801	
25,1982	0,0555801	
25,2279	0,0603902	
25,2279	0,0603902	
25,2573	0,0624993	
25,2573	0,0624993	
25,2872	0,0789218	
25,2872	0,0789218	
25,3163	0,0512519	
25,3163	0,0512519	
25,3462	0,071576	
25,3462	0,071576	
25,3758	0,0556336	
25,3758	0,0556336	
25,4052	0,0932103	
25,4052	0,0932103	
25,4347	0,05962	
25,4347	0,05962	
25,4647	0,0443411	
25,4647	0,0443411	
25,4943	0,044542	
25,4943	0,044542	
25,5237	0,0401754	
25,5237	0,0401754	
25,5531	-0,00611178	
25,5531	-0,00611178	
25,5824	-0,00624417	
25,5824	-0,00624417	
25,6121	0,0064827	
25,6121	0,0064827	
25,6416	0,00618368	
25,6416	0,00618368	
25,6713	0,00591596	
25,6713	0,00591596	
25,7006	0,0162148	
25,7006	0,0162148	
25,7306	0,0130345	
25,7306	0,0130345	
25,7598	0,00717923	
25,7598	0,00717923	
25,7896	0,0182587	
25,7896	0,0182587	
25,8187	0,0283743	
25,8187	0,0283743	
25,8483	0,0471517	
25,8483	0,0471517	
25,8778	0,0573041	
25,8778	0,0573041	
25,9076	0,0829603	
25,9076	0,0829603	
25,9377	0,0935843	
25,9377	0,0935843	
25,9667	0,134215	
25,9667	0,134215	
25,9969	0,1566	
25,9969	0,1566	
26,0264	0,198554	
26,0264	0,198554	
26,0564	0,228429	
26,0564	0,228429	
26,0854	0,252179	
26,0854	0,252179	
26,1155	0,30807	
26,1155	0,30807	
26,1445	0,314163	
26,1445	0,314163	
26,174	0,301774	
26,174	0,301774	
26,2036	0,375267	
26,2036	0,375267	
26,233	0,349417	
26,233	0,349417	
26,2627	0,376589	
26,2627	0,376589	
26,292	0,351876	
26,292	0,351876	
26,3222	0,385501	
26,3222	0,385501	
26,3516	0,348277	
26,3516	0,348277	
26,3815	0,314594	
26,3815	0,314594	
26,4109	0,312478	
26,4109	0,312478	
26,4407	0,313342	
26,4407	0,313342	
26,47	0,254703	
26,47	0,254703	
26,4996	0,234436	
26,4996	0,234436	
26,5293	0,170876	
26,5293	0,170876	
26,5587	0,123078	
26,5587	0,123078	
26,5887	0,0436779	
26,5887	0,0436779	
26,6179	-0,0123648	
26,6179	-0,0123648	
26,6472	-0,0257344	
26,6472	-0,0257344	
26,6773	0,0403984	
26,6773	0,0403984	
26,7066	-0,0154356	
26,7066	-0,0154356	
26,7363	-0,0191426	
26,7363	-0,0191426	
26,7661	0,0134972	
26,7661	0,0134972	
26,7959	-0,00373786	
26,7959	-0,00373786	
26,8251	0,0232531	
26,8251	0,0232531	
26,8548	0,0187883	
26,8548	0,0187883	
26,8846	0,0188427	
26,8846	0,0188427	
26,9139	0,0396712	
26,9139	0,0396712	
26,9434	0,0814786	
26,9434	0,0814786	
26,9726	0,0886506	
26,9726	0,0886506	
27,0026	0,125326	
27,0026	0,125326	
27,0323	0,161854	
27,0323	0,161854	
27,0622	0,183853	
27,0622	0,183853	
27,0917	0,201132	
27,0917	0,201132	
27,1215	0,234963	
27,1215	0,234963	
27,1512	0,264723	
27,1512	0,264723	
27,181	0,246653	
27,181	0,246653	
27,21	0,290377	
27,21	0,290377	
27,2395	0,298347	
27,2395	0,298347	
27,2691	0,302656	
27,2691	0,302656	
27,2989	0,316187	
27,2989	0,316187	
27,3285	0,29366	
27,3285	0,29366	
27,3579	0,30033	
27,3579	0,30033	
27,3874	0,277424	
27,3874	0,277424	
27,4174	0,282454	
27,4174	0,282454	
27,4465	0,277952	
27,4465	0,277952	
27,4758	0,238995	
27,4758	0,238995	
27,5052	0,233502	
27,5052	0,233502	
27,5345	0,192491	
27,5345	0,192491	
27,5645	0,135963	
27,5645	0,135963	
27,594	0,0719702	
27,594	0,0719702	
27,6241	0,0340883	
27,6241	0,0340883	
27,6534	0,0200499	
27,6534	0,0200499	
27,6831	-0,00138025	
27,6831	-0,00138025	
27,7125	0,0341343	
27,7125	0,0341343	
27,7425	0,00440683	
27,7425	0,00440683	
27,772	0,043493	
27,772	0,043493	
27,8016	0,051157	
27,8016	0,051157	
27,8307	0,0532577	
27,8307	0,0532577	
27,8603	0,128116	
27,8603	0,128116	
27,8896	0,172776	
27,8896	0,172776	
27,9193	0,185613	
27,9193	0,185613	
27,9493	0,253472	
27,9493	0,253472	
27,9786	0,247738	
27,9786	0,247738	
28,0087	0,370422	
28,0087	0,370422	
28,0379	0,462844	
28,0379	0,462844	
28,0672	0,571741	
28,0672	0,571741	
28,0968	0,651216	
28,0968	0,651216	
28,1259	0,695534	
28,1259	0,695534	
28,156	0,781151	
28,156	0,781151	
28,1853	0,786765	
28,1853	0,786765	
28,2152	0,85751	
28,2152	0,85751	
28,2452	0,864934	
28,2452	0,864934	
28,2744	0,928821	
28,2744	0,928821	
28,3035	0,900663	
28,3035	0,900663	
28,3329	0,890443	
28,3329	0,890443	
28,3629	0,863168	
28,3629	0,863168	
28,3923	0,838707	
28,3923	0,838707	
28,4219	0,801679	
28,4219	0,801679	
28,4515	0,757171	
28,4515	0,757171	
28,4809	0,699323	
28,4809	0,699323	
28,5116	0,625782	
28,5116	0,625782	
28,5405	0,482344	
28,5405	0,482344	
28,5699	0,33778	
28,5699	0,33778	
28,5992	0,189293	
28,5992	0,189293	
28,6299	0,0572421	
28,6299	0,0572421	
28,6592	0,0142123	
28,6592	0,0142123	
28,6885	-0,029085	
28,6885	-0,029085	
28,7178	-0,0165707	
28,7178	-0,0165707	
28,7474	0,00640836	
28,7474	0,00640836	
28,777	-0,0387936	
28,777	-0,0387936	
28,8069	0,00449226	
28,8069	0,00449226	
28,8359	-0,0201358	
28,8359	-0,0201358	
28,8657	0,0116306	
28,8657	0,0116306	
28,895	0,0245235	
28,895	0,0245235	
28,9245	0,0477987	
28,9245	0,0477987	
28,9541	0,0461183	
28,9541	0,0461183	
28,9841	0,0828159	
28,9841	0,0828159	
29,0134	0,0964437	
29,0134	0,0964437	
29,0432	0,139901	
29,0432	0,139901	
29,0722	0,149226	
29,0722	0,149226	
29,1016	0,177244	
29,1016	0,177244	
29,1311	0,239945	
29,1311	0,239945	
29,1605	0,275535	
29,1605	0,275535	
29,1902	0,23511	
29,1902	0,23511	
29,2202	0,276193	
29,2202	0,276193	
29,2495	0,287233	
29,2495	0,287233	
29,2792	0,292098	
29,2792	0,292098	
29,3088	0,277472	
29,3088	0,277472	
29,338	0,301566	
29,338	0,301566	
29,368	0,278219	
29,368	0,278219	
29,3973	0,268145	
29,3973	0,268145	
29,4271	0,295646	
29,4271	0,295646	
29,4567	0,277402	
29,4567	0,277402	
29,4862	0,239057	
29,4862	0,239057	
29,5155	0,219271	
29,5155	0,219271	
29,5449	0,174834	
29,5449	0,174834	
29,5745	0,155554	
29,5745	0,155554	
29,6046	0,0886499	
29,6046	0,0886499	
29,6345	0,0375513	
29,6345	0,0375513	
29,6634	0,00678825	
29,6634	0,00678825	
29,6932	-0,0257674	
29,6932	-0,0257674	
29,7224	-0,0189117	
29,7224	-0,0189117	
29,7521	0,00345531	
29,7521	0,00345531	
29,7817	-0,0441307	
29,7817	-0,0441307	
29,8111	-0,0233406	
29,8111	-0,0233406	
29,8405	-0,0514044	
29,8405	-0,0514044	
29,8705	-0,0172816	
29,8705	-0,0172816	
29,9001	-0,00308014	
29,9001	-0,00308014	
29,93	0,00824782	
29,93	0,00824782	
29,9588	-0,00919461	
29,9588	-0,00919461	
29,9881	0,00446226	
29,9881	0,00446226	
30,0182	0,00523933	
30,0182	0,00523933	
30,0477	0,00802901	
30,0477	0,00802901	
30,0774	0,00623846	
30,0774	0,00623846	
30,1074	0,0419689	
30,1074	0,0419689	
30,1371	0,0380199	
30,1371	0,0380199	
30,1663	0,0327086	
30,1663	0,0327086	
30,1956	0,0442273	
30,1956	0,0442273	
30,2252	0,0296532	
30,2252	0,0296532	
30,2546	0,0464721	
30,2546	0,0464721	
30,2842	0,0484551	
30,2842	0,0484551	
30,3141	0,0627146	
30,3141	0,0627146	
30,344	0,0460717	
30,344	0,0460717	
30,3736	0,0669387	
30,3736	0,0669387	
30,4038	0,0371036	
30,4038	0,0371036	
30,4324	0,0474432	
30,4324	0,0474432	
30,4625	0,0621488	
30,4625	0,0621488	
30,4917	0,0542813	
30,4917	0,0542813	
30,5214	0,0399148	
30,5214	0,0399148	
30,5505	0,0331798	
30,5505	0,0331798	
30,5801	0,0642596	
30,5801	0,0642596	
30,61	-0,00126905	
30,61	-0,00126905	
30,6392	0,024394	
30,6392	0,024394	
30,6694	0,0195073	
30,6694	0,0195073	
30,6987	-0,00214329	
30,6987	-0,00214329	
30,7282	-0,0030596	
30,7282	-0,0030596	
30,7579	0,00571216	
30,7579	0,00571216	
30,7876	0,021559	
30,7876	0,021559	
30,8165	0,0271029	
30,8165	0,0271029	
30,8465	0,0380278	
30,8465	0,0380278	
30,876	0,0470738	
30,876	0,0470738	
30,9054	0,080457	
30,9054	0,080457	
30,9349	0,0918182	
30,9349	0,0918182	
30,9651	0,11346	
30,9651	0,11346	
30,9945	0,17386	
30,9945	0,17386	
31,0242	0,219095	
31,0242	0,219095	
31,0529	0,261444	
31,0529	0,261444	
31,0827	0,314403	
31,0827	0,314403	
31,1126	0,385941	
31,1126	0,385941	
31,142	0,459589	
31,142	0,459589	
31,1713	0,533133	
31,1713	0,533133	
31,2009	0,605631	
31,2009	0,605631	
31,2307	0,638552	
31,2307	0,638552	
31,26	0,715481	
31,26	0,715481	
31,2894	0,70978	
31,2894	0,70978	
31,3193	0,730759	
31,3193	0,730759	
31,3491	0,759762	
31,3491	0,759762	
31,3785	0,742925	
31,3785	0,742925	
31,4078	0,772795	
31,4078	0,772795	
31,4372	0,719552	
31,4372	0,719552	
31,4671	0,696852	
31,4671	0,696852	
31,4963	0,662711	
31,4963	0,662711	
31,5262	0,624774	
31,5262	0,624774	
31,5559	0,61415	
31,5559	0,61415	
31,5859	0,528402	
31,5859	0,528402	
31,6149	0,39061	
31,6149	0,39061	
31,644	0,272678	
31,644	0,272678	
31,6734	0,153907	
31,6734	0,153907	
31,7034	0,047963	
31,7034	0,047963	
31,7329	-0,0394233	
31,7329	-0,0394233	
31,762	-0,0357421	
31,762	-0,0357421	
31,7921	-0,00953276	
31,7921	-0,00953276	
31,8219	-0,053746	
31,8219	-0,053746	
31,8516	-0,00434895	
31,8516	-0,00434895	
31,8814	-0,0284573	
31,8814	-0,0284573	
31,9103	-0,0211252	
31,9103	-0,0211252	
31,94	-0,0328735	
31,94	-0,0328735	
31,9696	-0,0327323	
31,9696	-0,0327323	
31,9993	-0,00334427	
31,9993	-0,00334427	
32,0284	-0,00998407	
32,0284	-0,00998407	
32,0582	-0,038744	
32,0582	-0,038744	
32,0881	-0,0139477	
32,0881	-0,0139477	
32,1173	-0,0135208	
32,1173	-0,0135208	
32,1471	0,00109313	
32,1471	0,00109313	
32,1765	-0,0309427	
32,1765	-0,0309427	
32,2061	-0,00606384	
32,2061	-0,00606384	
32,2351	-0,00539732	
32,2351	-0,00539732	
32,2646	0,0107003	
32,2646	0,0107003	
32,2947	-0,0090358	
32,2947	-0,0090358	
32,324	-0,0205535	
32,324	-0,0205535	
32,3533	-0,00545178	
32,3533	-0,00545178	
32,383	0,00366074	
32,383	0,00366074	
32,4131	-0,0101337	
32,4131	-0,0101337	
32,4425	-0,00404503	
32,4425	-0,00404503	
32,4714	-0,00447025	
32,4714	-0,00447025	
32,5011	-0,00588939	
32,5011	-0,00588939	
32,5307	-0,0130845	
32,5307	-0,0130845	
32,5606	0,000769323	
32,5606	0,000769323	
32,5897	-0,00274199	
32,5897	-0,00274199	
32,6192	-0,0147397	
32,6192	-0,0147397	
32,6484	-0,0179044	
32,6484	-0,0179044	
32,6784	-0,00272079	
32,6784	-0,00272079	
32,7079	-0,0152993	
32,7079	-0,0152993	
32,7376	-0,0235386	
32,7376	-0,0235386	
32,7671	-0,00681156	
32,7671	-0,00681156	
32,7967	-0,0233507	
32,7967	-0,0233507	
32,8263	-0,0303365	
32,8263	-0,0303365	
32,8558	-0,0127548	
32,8558	-0,0127548	
32,8851	-0,0341331	
32,8851	-0,0341331	
32,9148	-0,0397392	
32,9148	-0,0397392	
32,9437	-0,0156022	
32,9437	-0,0156022	
32,9739	-0,00271003	
32,9739	-0,00271003	
33,0033	-0,00414156	
33,0033	-0,00414156	
33,0332	-0,0269961	
33,0332	-0,0269961	
33,0626	-0,0369616	
33,0626	-0,0369616	
33,0921	0,00835184	
33,0921	0,00835184	
33,1218	-0,0180893	
33,1218	-0,0180893	
33,1515	-0,0346115	
33,1515	-0,0346115	
33,1809	0,00780923	
33,1809	0,00780923	
33,2107	-0,0167507	
33,2107	-0,0167507	
33,2403	-0,0165176	
33,2403	-0,0165176	
33,2699	-0,0050533	
33,2699	-0,0050533	
33,2996	-0,0142304	
33,2996	-0,0142304	
33,3287	0,000586387	
33,3287	0,000586387	
33,3577	-0,0341527	
33,3577	-0,0341527	
33,3878	-0,0128726	
33,3878	-0,0128726	
33,4177	-0,0149044	
33,4177	-0,0149044	
33,4471	-0,0270896	
33,4471	-0,0270896	
33,4767	-0,00211688	
33,4767	-0,00211688	
33,5061	-0,00557112	
33,5061	-0,00557112	
33,5358	-0,0102635	
33,5358	-0,0102635	
33,5655	-0,0102045	
33,5655	-0,0102045	
33,5949	-0,0231642	
33,5949	-0,0231642	
33,6249	-0,0241063	
33,6249	-0,0241063	
33,6542	-0,0166744	
33,6542	-0,0166744	
33,6838	-0,0143846	
33,6838	-0,0143846	
33,7139	-0,0168844	
33,7139	-0,0168844	
33,7436	-0,0110481	
33,7436	-0,0110481	
33,7731	-0,0149484	
33,7731	-0,0149484	
33,8027	-0,0256545	
33,8027	-0,0256545	
33,8319	-0,0116507	
33,8319	-0,0116507	
33,862	-0,0211829	
33,862	-0,0211829	
33,8914	-0,0090358	
33,8914	-0,0090358	
33,9206	-0,0141329	
33,9206	-0,0141329	
33,95	-0,0239595	
33,95	-0,0239595	
33,9801	-0,0124946	
33,9801	-0,0124946	
34,0096	-0,0272592	
34,0096	-0,0272592	
34,0385	-0,0023859	
34,0385	-0,0023859	
34,0685	-0,0267153	
34,0685	-0,0267153	
34,098	-0,0136258	
34,098	-0,0136258	
34,1276	-0,014442	
34,1276	-0,014442	
34,1569	-0,0184464	
34,1569	-0,0184464	
34,1867	0,00147693	
34,1867	0,00147693	
34,2157	-0,011875	
34,2157	-0,011875	
34,2459	-0,0148382	
34,2459	-0,0148382	
34,2754	-0,00939613	
34,2754	-0,00939613	
34,3051	-0,0143654	
34,3051	-0,0143654	
34,3346	-0,0274816	
34,3346	-0,0274816	
34,364	-0,0234551	
34,364	-0,0234551	
34,3934	-0,0179217	
34,3934	-0,0179217	
34,4233	-0,0101315	
34,4233	-0,0101315	
34,4528	-0,0136936	
34,4528	-0,0136936	
34,4822	-0,0225753	
34,4822	-0,0225753	
34,5117	-0,0114146	
34,5117	-0,0114146	
34,5414	-0,016391	
34,5414	-0,016391	
34,5711	-0,0192456	
34,5711	-0,0192456	
34,6004	-0,00295362	
34,6004	-0,00295362	
34,6299	-0,0190764	
34,6299	-0,0190764	
34,6596	-0,0118167	
34,6596	-0,0118167	
34,6891	-0,00481917	
34,6891	-0,00481917	
34,7187	0,00115835	
34,7187	0,00115835	
34,7479	-0,0136979	
34,7479	-0,0136979	
34,7778	-0,00934233	
34,7778	-0,00934233	
34,8071	-0,0256496	
34,8071	-0,0256496	
34,8368	-0,0167354	
34,8368	-0,0167354	
34,8663	-0,0187017	
34,8663	-0,0187017	
34,8958	-0,0124506	
34,8958	-0,0124506	
34,9256	-0,0224364	
34,9256	-0,0224364	
34,9547	-0,00544949	
34,9547	-0,00544949	
34,9844	-0,0286236	
34,9844	-0,0286236	
35,014	-0,0140706	
35,014	-0,0140706	
35,0434	-0,0243567	
35,0434	-0,0243567	
35,0731	-0,0230585	
35,0731	-0,0230585	
35,1026	0,0128049	
35,1026	0,0128049	
35,1323	-0,00443797	
35,1323	-0,00443797	
35,1617	-0,0153231	
35,1617	-0,0153231	
35,1918	-0,0180948	
35,1918	-0,0180948	
35,221	-0,0134324	
35,221	-0,0134324	
35,2506	-0,0255988	
35,2506	-0,0255988	
35,2803	-0,0211969	
35,2803	-0,0211969	
35,3093	-0,00978124	
35,3093	-0,00978124	
35,3389	-0,00949428	
35,3389	-0,00949428	
35,3684	-0,0120645	
35,3684	-0,0120645	
35,3982	-0,00209438	
35,3982	-0,00209438	
35,4275	-0,0427017	
35,4275	-0,0427017	
35,4577	-0,0168045	
35,4577	-0,0168045	
35,4872	-0,00257275	
35,4872	-0,00257275	
35,5163	-0,0132818	
35,5163	-0,0132818	
35,5458	-0,0233735	
35,5458	-0,0233735	
35,5749	-0,0102521	
35,5749	-0,0102521	
35,6055	-0,0188256	
35,6055	-0,0188256	
35,634	-0,0254481	
35,634	-0,0254481	
35,6639	-0,00583297	
35,6639	-0,00583297	
35,6937	-0,0125768	
35,6937	-0,0125768	
35,7229	-0,00353992	
35,7229	-0,00353992	
35,7528	-0,0458367	
35,7528	-0,0458367	
35,782	-0,0143236	
35,782	-0,0143236	
35,8114	0,00196052	
35,8114	0,00196052	
35,841	-0,0398374	
35,841	-0,0398374	
35,8702	-0,0231358	
35,8702	-0,0231358	
35,9004	-0,00901233	
35,9004	-0,00901233	
35,9299	-0,0123299	
35,9299	-0,0123299	
35,9594	-0,053851	
35,9594	-0,053851	
35,9889	-0,00607167	
35,9889	-0,00607167	
36,0189	-0,00929407	
36,0189	-0,00929407	
36,0483	-0,0130069	
36,0483	-0,0130069	
36,0771	-0,0147394	
36,0771	-0,0147394	
36,1072	-0,0139062	
36,1072	-0,0139062	
36,1372	-0,00205003	
36,1372	-0,00205003	
36,1665	-0,0239318	
36,1665	-0,0239318	
36,1957	-0,0180531	
36,1957	-0,0180531	
36,2253	-0,0028809	
36,2253	-0,0028809	
36,2546	-0,0136049	
36,2546	-0,0136049	
36,2847	0,0109217	
36,2847	0,0109217	
36,3144	-0,0192466	
36,3144	-0,0192466	
36,3434	-0,00263731	
36,3434	-0,00263731	
36,3734	-0,0124023	
36,3734	-0,0124023	
36,4036	-0,0140227	
36,4036	-0,0140227	
36,4329	-0,033435	
36,4329	-0,033435	
36,462	0,0149848	
36,462	0,0149848	
36,4919	-0,0194556	
36,4919	-0,0194556	
36,5214	-0,0133969	
36,5214	-0,0133969	
36,5513	-0,00249514	
36,5513	-0,00249514	
36,5808	-0,0118183	
36,5808	-0,0118183	
36,6105	-0,0110373	
36,6105	-0,0110373	
36,6399	-0,0089657	
36,6399	-0,0089657	
36,6696	-0,033059	
36,6696	-0,033059	
36,6987	0,000664648	
36,6987	0,000664648	
36,7285	0,00230617	
36,7285	0,00230617	
36,7579	-0,0104364	
36,7579	-0,0104364	
36,7878	-0,0331454	
36,7878	-0,0331454	
36,8173	-0,0131174	
36,8173	-0,0131174	
36,8471	-0,0215282	
36,8471	-0,0215282	
36,8766	-0,0121936	
36,8766	-0,0121936	
36,9063	-0,0042009	
36,9063	-0,0042009	
36,9357	0,00404422	
36,9357	0,00404422	
36,9649	-0,030241	
36,9649	-0,030241	
36,9949	-0,00521275	
36,9949	-0,00521275	
37,024	-0,0207407	
37,024	-0,0207407	
37,0536	-0,0243016	
37,0536	-0,0243016	
37,0829	-0,0168482	
37,0829	-0,0168482	
37,1125	-0,00538199	
37,1125	-0,00538199	
37,1423	-0,0149807	
37,1423	-0,0149807	
37,1719	-0,0169741	
37,1719	-0,0169741	
37,2017	-0,00523754	
37,2017	-0,00523754	
37,2304	0,00234041	
37,2304	0,00234041	
37,2605	-0,0201547	
37,2605	-0,0201547	
37,2903	0,0161538	
37,2903	0,0161538	
37,3194	-0,0360848	
37,3194	-0,0360848	
37,3488	0,00863097	
37,3488	0,00863097	
37,3788	-0,00879972	
37,3788	-0,00879972	
37,4085	-0,000968724	
37,4085	-0,000968724	
37,4382	0,00163248	
37,4382	0,00163248	
37,4676	-0,00511851	
37,4676	-0,00511851	
37,4967	-0,00189155	
37,4967	-0,00189155	
37,5264	-0,0179279	
37,5264	-0,0179279	
37,5556	-0,00545373	
37,5556	-0,00545373	
37,5853	0,00541379	
37,5853	0,00541379	
37,615	-0,0136062	
37,615	-0,0136062	
37,6444	-0,012989	
37,6444	-0,012989	
37,6743	-0,0101592	
37,6743	-0,0101592	
37,7035	-0,016378	
37,7035	-0,016378	
37,733	-0,000643941	
37,733	-0,000643941	
37,7628	0,00230193	
37,7628	0,00230193	
37,7925	-0,0269423	
37,7925	-0,0269423	
37,8221	-0,00385916	
37,8221	-0,00385916	
37,8511	-0,0219254	
37,8511	-0,0219254	
37,8807	-0,0125973	
37,8807	-0,0125973	
37,9106	-0,0155396	
37,9106	-0,0155396	
37,9399	-0,0122142	
37,9399	-0,0122142	
37,9694	-0,00933222	
37,9694	-0,00933222	
37,9994	-0,0304979	
37,9994	-0,0304979	
38,0289	-0,0131836	
38,0289	-0,0131836	
38,0583	0,00105954	
38,0583	0,00105954	
38,0875	-0,0152517	
38,0875	-0,0152517	
38,1169	-0,0216658	
38,1169	-0,0216658	
38,1469	-0,0148982	
38,1469	-0,0148982	
38,1762	0,00254161	
38,1762	0,00254161	
38,2055	-0,0227807	
38,2055	-0,0227807	
38,2353	-0,0191641	
38,2353	-0,0191641	
38,2649	-0,014276	
38,2649	-0,014276	
38,2945	0,00500716	
38,2945	0,00500716	
38,3239	-0,000151875	
38,3239	-0,000151875	
38,3532	-0,0240283	
38,3532	-0,0240283	
38,3832	-0,0154529	
38,3832	-0,0154529	
38,413	0,0291996	
38,413	0,0291996	
38,4424	-0,0158129	
38,4424	-0,0158129	
38,4723	0,0121808	
38,4723	0,0121808	
38,5015	-0,0166969	
38,5015	-0,0166969	
38,5309	0,00207596	
38,5309	0,00207596	
38,5609	-0,00651026	
38,5609	-0,00651026	
38,5903	-0,00927776	
38,5903	-0,00927776	
38,6195	-0,0136046	
38,6195	-0,0136046	
38,6495	0,000826714	
38,6495	0,000826714	
38,6791	0,00251943	
38,6791	0,00251943	
38,7082	-0,0281625	
38,7082	-0,0281625	
38,7375	-0,021223	
38,7375	-0,021223	
38,7673	-0,0021622	
38,7673	-0,0021622	
38,7968	-0,0289549	
38,7968	-0,0289549	
38,8266	-0,0282261	
38,8266	-0,0282261	
38,8556	-0,0137651	
38,8556	-0,0137651	
38,8855	0,00646836	
38,8855	0,00646836	
38,9148	-0,0152377	
38,9148	-0,0152377	
38,9445	0,00820705	
38,9445	0,00820705	
38,9739	-0,0105479	
38,9739	-0,0105479	
39,0031	0,000567148	
39,0031	0,000567148	
39,033	-0,0180202	
39,033	-0,0180202	
39,0625	-0,0157692	
39,0625	-0,0157692	
39,0924	0,00396335	
39,0924	0,00396335	
39,122	-0,0089533	
39,122	-0,0089533	
39,1514	-0,00393319	
39,1514	-0,00393319	
39,1798	0,00946477	
39,1798	0,00946477	
39,2097	0,0115018	
39,2097	0,0115018	
39,2397	-0,0434798	
39,2397	-0,0434798	
39,2688	-0,00713798	
39,2688	-0,00713798	
39,2987	0,0173163	
39,2987	0,0173163	
39,3281	-3,51355E-5	
39,3281	-3,51355E-5	
39,3575	0,0253739	
39,3575	0,0253739	
39,3874	0,0135295	
39,3874	0,0135295	
39,4165	0,00855858	
39,4165	0,00855858	
39,446	0,0145012	
39,446	0,0145012	
39,4755	0,0288367	
39,4755	0,0288367	
39,5052	0,0252067	
39,5052	0,0252067	
39,5347	0,0235407	
39,5347	0,0235407	
39,5643	0,00763738	
39,5643	0,00763738	
39,5932	0,0446708	
39,5932	0,0446708	
39,6228	0,0601368	
39,6228	0,0601368	
39,6531	0,00110128	
39,6531	0,00110128	
39,6825	0,0374891	
39,6825	0,0374891	
39,7126	0,00760542	
39,7126	0,00760542	
39,7421	0,00327857	
39,7421	0,00327857	
39,7716	0,0185792	
39,7716	0,0185792	
39,8009	0,0023078	
39,8009	0,0023078	
39,8312	-0,000789376	
39,8312	-0,000789376	
39,8599	-0,00981678	
39,8599	-0,00981678	
39,8895	0,0327207	
39,8895	0,0327207	
39,9188	-0,0133832	
39,9188	-0,0133832	
39,9491	-0,0117939	
39,9491	-0,0117939	
39,9783	-0,00974505	
39,9783	-0,00974505	
40,0072	-0,00992928	
40,0072	-0,00992928	
40,0374	-0,0164429	
40,0374	-0,0164429	
40,0671	-0,0141753	
40,0671	-0,0141753	
40,0966	-0,0207176	
40,0966	-0,0207176	
40,1261	-0,0108316	
40,1261	-0,0108316	
40,1559	-0,0106323	
40,1559	-0,0106323	
40,1856	-0,0149318	
40,1856	-0,0149318	
40,2151	0,00418118	
40,2151	0,00418118	
40,2444	0,00294726	
40,2444	0,00294726	
40,2741	0,00357694	
40,2741	0,00357694	
40,3037	-0,014036	
40,3037	-0,014036	
40,3332	0,00455324	
40,3332	0,00455324	
40,3629	0,00505998	
40,3629	0,00505998	
40,393	0,0184544	
40,393	0,0184544	
40,4228	0,00680227	
40,4228	0,00680227	
40,4522	0,0427544	
40,4522	0,0427544	
40,4817	0,0195096	
40,4817	0,0195096	
40,5113	-0,0079258	
40,5113	-0,0079258	
40,5408	0,0210712	
40,5408	0,0210712	
40,5702	0,0127243	
40,5702	0,0127243	
40,5996	0,0135979	
40,5996	0,0135979	
40,629	0,0249406	
40,629	0,0249406	
40,6587	0,0182088	
40,6587	0,0182088	
40,6881	0,0187534	
40,6881	0,0187534	
40,7175	0,00283639	
40,7175	0,00283639	
40,7478	0,019627	
40,7478	0,019627	
40,777	0,0153767	
40,777	0,0153767	
40,8067	0,0217948	
40,8067	0,0217948	
40,8361	-0,0181464	
40,8361	-0,0181464	
40,8652	-0,0248171	
40,8652	-0,0248171	
40,895	0,00126726	
40,895	0,00126726	
40,924	-0,0147948	
40,924	-0,0147948	
40,9536	-0,0135234	
40,9536	-0,0135234	
40,9835	-0,025514	
40,9835	-0,025514	
41,0132	0,00610477	
41,0132	0,00610477	
41,0425	-0,000251005	
41,0425	-0,000251005	
41,0727	-0,0205633	
41,0727	-0,0205633	
41,1024	-0,0118715	
41,1024	-0,0118715	
41,1311	-0,0289255	
41,1311	-0,0289255	
41,1603	0,0274068	
41,1603	0,0274068	
41,1899	0,00354172	
41,1899	0,00354172	
41,2192	0,00354009	
41,2192	0,00354009	
41,2484	0,00465498	
41,2484	0,00465498	
41,2788	-0,00522286	
41,2788	-0,00522286	
41,3085	0,0131401	
41,3085	0,0131401	
41,3388	0,0331078	
41,3388	0,0331078	
41,3679	0,0318569	
41,3679	0,0318569	
41,3979	0,0136472	
41,3979	0,0136472	
41,4269	0,0302506	
41,4269	0,0302506	
41,4562	0,0300435	
41,4562	0,0300435	
41,4858	0,0081676	
41,4858	0,0081676	
41,5154	0,0645693	
41,5154	0,0645693	
41,5447	0,0815331	
41,5447	0,0815331	
41,5748	0,0272333	
41,5748	0,0272333	
41,6041	0,00585368	
41,6041	0,00585368	
41,6332	0,0462872	
41,6332	0,0462872	
41,6629	0,0592283	
41,6629	0,0592283	
41,6924	0,0210891	
41,6924	0,0210891	
41,7217	0,0558266	
41,7217	0,0558266	
41,7519	0,0447879	
41,7519	0,0447879	
41,7813	0,0539196	
41,7813	0,0539196	
41,811	0,0312318	
41,811	0,0312318	
41,8403	0,0224603	
41,8403	0,0224603	
41,8698	-0,00337003	
41,8698	-0,00337003	
41,8995	0,00826836	
41,8995	0,00826836	
41,9293	-0,0119729	
41,9293	-0,0119729	
41,9591	0,0137496	
41,9591	0,0137496	
41,9885	-0,00902994	
41,9885	-0,00902994	
42,0176	-0,00894254	
42,0176	-0,00894254	
42,0472	-0,00178264	
42,0472	-0,00178264	
42,077	-0,0215497	
42,077	-0,0215497	
42,1064	-0,0315737	
42,1064	-0,0315737	
42,1362	-0,0115962	
42,1362	-0,0115962	
42,1651	0,00130998	
42,1651	0,00130998	
42,1945	0,00918662	
42,1945	0,00918662	
42,2243	0,00368357	
42,2243	0,00368357	
42,2538	0,0109935	
42,2538	0,0109935	
42,2832	0,0169051	
42,2832	0,0169051	
42,3132	0,0458382	
42,3132	0,0458382	
42,3427	-0,00655069	
42,3427	-0,00655069	
42,3726	0,0483305	
42,3726	0,0483305	
42,4015	0,0280152	
42,4015	0,0280152	
42,4313	0,00883836	
42,4313	0,00883836	
42,4607	0,0478264	
42,4607	0,0478264	
42,4905	0,0308196	
42,4905	0,0308196	
42,5192	0,0499919	
42,5192	0,0499919	
42,5489	0,0591057	
42,5489	0,0591057	
42,5786	0,048681	
42,5786	0,048681	
42,6081	0,0446131	
42,6081	0,0446131	
42,6377	0,0449275	
42,6377	0,0449275	
42,6675	0,0826056	
42,6675	0,0826056	
42,6974	0,0733098	
42,6974	0,0733098	
42,7266	0,0361182	
42,7266	0,0361182	
42,7568	0,0567315	
42,7568	0,0567315	
42,7858	0,0411119	
42,7858	0,0411119	
42,8153	0,0531038	
42,8153	0,0531038	
42,8449	0,0585827	
42,8449	0,0585827	
42,8743	0,00806358	
42,8743	0,00806358	
42,903	0,0385427	
42,903	0,0385427	
42,933	0,0110946	
42,933	0,0110946	
42,9624	-0,0358497	
42,9624	-0,0358497	
42,9921	0,00938586	
42,9921	0,00938586	
43,0219	-0,000850681	
43,0219	-0,000850681	
43,0519	-0,0220835	
43,0519	-0,0220835	
43,0814	-0,00846809	
43,0814	-0,00846809	
43,1111	0,00385379	
43,1111	0,00385379	
43,1407	-0,00428732	
43,1407	-0,00428732	
43,1698	0,0185796	
43,1698	0,0185796	
43,1999	0,0216047	
43,1999	0,0216047	
43,2287	0,0355883	
43,2287	0,0355883	
43,2585	0,03326	
43,2585	0,03326	
43,2883	0,0356255	
43,2883	0,0356255	
43,3182	0,077067	
43,3182	0,077067	
43,3471	0,0572751	
43,3471	0,0572751	
43,3768	0,055794	
43,3768	0,055794	
43,4066	0,129431	
43,4066	0,129431	
43,4359	0,107033	
43,4359	0,107033	
43,465	0,127412	
43,465	0,127412	
43,4955	0,150887	
43,4955	0,150887	
43,525	0,134834	
43,525	0,134834	
43,5547	0,193289	
43,5547	0,193289	
43,5841	0,171498	
43,5841	0,171498	
43,6134	0,192042	
43,6134	0,192042	
43,6433	0,203799	
43,6433	0,203799	
43,6729	0,202953	
43,6729	0,202953	
43,7024	0,168513	
43,7024	0,168513	
43,7319	0,164254	
43,7319	0,164254	
43,7614	0,137443	
43,7614	0,137443	
43,7911	0,150878	
43,7911	0,150878	
43,8204	0,136655	
43,8204	0,136655	
43,85	0,0938073	
43,85	0,0938073	
43,8798	0,0673235	
43,8798	0,0673235	
43,909	0,0823059	
43,909	0,0823059	
43,9382	0,0646763	
43,9382	0,0646763	
43,9685	0,0199413	
43,9685	0,0199413	
43,9984	-0,0200109	
43,9984	-0,0200109	
44,027	0,0221584	
44,027	0,0221584	
44,0564	-0,0165965	
44,0564	-0,0165965	
44,086	-0,0322056	
44,086	-0,0322056	
44,1165	-0,0370989	
44,1165	-0,0370989	
44,1455	-0,0125047	
44,1455	-0,0125047	
44,1743	0,0225556	
44,1743	0,0225556	
44,2038	-0,00353438	
44,2038	-0,00353438	
44,234	-0,0287426	
44,234	-0,0287426	
44,263	-0,00211753	
44,263	-0,00211753	
44,2925	-0,00417873	
44,2925	-0,00417873	
44,3225	0,0547544	
44,3225	0,0547544	
44,3525	0,0223782	
44,3525	0,0223782	
44,3815	-0,00252025	
44,3815	-0,00252025	
44,4116	0,0468285	
44,4116	0,0468285	
44,441	0,00991673	
44,441	0,00991673	
44,4705	0,0114722	
44,4705	0,0114722	
44,5001	0,0582142	
44,5001	0,0582142	
44,5298	0,0268433	
44,5298	0,0268433	
44,5587	0,0617934	
44,5587	0,0617934	
44,5886	0,0621472	
44,5886	0,0621472	
44,6178	0,0418851	
44,6178	0,0418851	
44,6478	0,0114392	
44,6478	0,0114392	
44,6771	0,040341	
44,6771	0,040341	
44,7069	0,0622235	
44,7069	0,0622235	
44,736	0,0400544	
44,736	0,0400544	
44,7658	0,0697065	
44,7658	0,0697065	
44,7952	0,0327778	
44,7952	0,0327778	
44,8248	0,0465722	
44,8248	0,0465722	
44,8542	-0,00164177	
44,8542	-0,00164177	
44,8834	0,0529322	
44,8834	0,0529322	
44,9133	0,00435726	
44,9133	0,00435726	
44,9429	0,0120908	
44,9429	0,0120908	
44,9725	-0,0170722	
44,9725	-0,0170722	
45,0019	0,026315	
45,0019	0,026315	
45,0315	0,00044617	
45,0315	0,00044617	
45,061	-0,0129759	
45,061	-0,0129759	
45,091	-0,0474698	
45,091	-0,0474698	
45,1203	-0,0133526	
45,1203	-0,0133526	
45,1495	-0,00934722	
45,1495	-0,00934722	
45,1796	0,0232188	
45,1796	0,0232188	
45,2089	-0,00223068	
45,2089	-0,00223068	
45,2385	0,0866823	
45,2385	0,0866823	
45,2684	0,0358965	
45,2684	0,0358965	
45,2973	-0,00274068	
45,2973	-0,00274068	
45,3277	0,0206825	
45,3277	0,0206825	
45,3562	0,0505042	
45,3562	0,0505042	
45,3862	0,0583632	
45,3862	0,0583632	
45,4158	0,0910718	
45,4158	0,0910718	
45,445	0,0996081	
45,445	0,0996081	
45,4746	0,104985	
45,4746	0,104985	
45,5043	0,135346	
45,5043	0,135346	
45,534	0,183439	
45,534	0,183439	
45,5632	0,141052	
45,5632	0,141052	
45,5925	0,169607	
45,5925	0,169607	
45,6225	0,218564	
45,6225	0,218564	
45,6518	0,191766	
45,6518	0,191766	
45,6813	0,190473	
45,6813	0,190473	
45,7108	0,239642	
45,7108	0,239642	
45,7406	0,173071	
45,7406	0,173071	
45,7707	0,208976	
45,7707	0,208976	
45,7996	0,190502	
45,7996	0,190502	
45,8287	0,14798	
45,8287	0,14798	
45,8583	0,179637	
45,8583	0,179637	
45,8879	0,155961	
45,8879	0,155961	
45,9174	0,131315	
45,9174	0,131315	
45,9472	0,0978365	
45,9472	0,0978365	
45,9765	0,074815	
45,9765	0,074815	
46,0066	0,0169436	
46,0066	0,0169436	
46,0358	-0,00738124	
46,0358	-0,00738124	
46,0651	-0,00350862	
46,0651	-0,00350862	
46,0949	-0,0142297	
46,0949	-0,0142297	
46,1244	-0,0169832	
46,1244	-0,0169832	
46,1537	-0,0176047	
46,1537	-0,0176047	
46,1834	-0,00065405	
46,1834	-0,00065405	
46,213	0,0112195	
46,213	0,0112195	
46,2425	-0,0112568	
46,2425	-0,0112568	
46,2721	-0,00444449	
46,2721	-0,00444449	
46,3015	0,00828238	
46,3015	0,00828238	
46,331	0,0164714	
46,331	0,0164714	
46,3609	0,00843923	
46,3609	0,00843923	
46,3907	0,00397313	
46,3907	0,00397313	
46,4205	0,0253146	
46,4205	0,0253146	
46,4496	0,0251483	
46,4496	0,0251483	
46,479	0,0225428	
46,479	0,0225428	
46,509	0,0602024	
46,509	0,0602024	
46,5385	0,05479	
46,5385	0,05479	
46,5679	0,0848089	
46,5679	0,0848089	
46,5975	0,0933766	
46,5975	0,0933766	
46,6274	0,0840739	
46,6274	0,0840739	
46,6565	0,0713976	
46,6565	0,0713976	
46,6854	0,0799176	
46,6854	0,0799176	
46,7154	0,0959494	
46,7154	0,0959494	
46,7447	0,0915306	
46,7447	0,0915306	
46,7746	0,0887213	
46,7746	0,0887213	
46,8044	0,0930381	
46,8044	0,0930381	
46,8339	0,0765152	
46,8339	0,0765152	
46,864	0,073975	
46,864	0,073975	
46,8928	0,086441	
46,8928	0,086441	
46,9225	0,0493463	
46,9225	0,0493463	
46,952	0,0644353	
46,952	0,0644353	
46,9816	0,0475316	
46,9816	0,0475316	
47,0113	0,0252689	
47,0113	0,0252689	
47,0407	0,00814608	
47,0407	0,00814608	
47,0708	-0,0308882	
47,0708	-0,0308882	
47,1003	-0,0142568	
47,1003	-0,0142568	
47,1298	0,014974	
47,1298	0,014974	
47,16	-0,0168518	
47,16	-0,0168518	
47,189	-0,0410064	
47,189	-0,0410064	
47,2193	-0,00237155	
47,2193	-0,00237155	
47,2478	-0,0013597	
47,2478	-0,0013597	
47,2772	-0,0102374	
47,2772	-0,0102374	
47,307	-0,0272908	
47,307	-0,0272908	
47,3367	-0,0109539	
47,3367	-0,0109539	
47,3662	-0,00143014	
47,3662	-0,00143014	
47,3954	-0,00825254	
47,3954	-0,00825254	
47,4249	0,00924695	
47,4249	0,00924695	
47,4549	0,00655705	
47,4549	0,00655705	
47,4842	-0,0172131	
47,4842	-0,0172131	
47,5139	-0,0216469	
47,5139	-0,0216469	
47,5432	-0,0180952	
47,5432	-0,0180952	
47,5725	0,00172345	
47,5725	0,00172345	
47,6028	-0,0177939	
47,6028	-0,0177939	
47,6326	0,0172752	
47,6326	0,0172752	
47,6614	-0,0219671	
47,6614	-0,0219671	
47,6912	0,00189726	
47,6912	0,00189726	
47,7211	-0,0304627	
47,7211	-0,0304627	
47,7509	-0,0133411	
47,7509	-0,0133411	
47,7797	-0,00081318	
47,7797	-0,00081318	
47,8094	-0,00183905	
47,8094	-0,00183905	
47,839	-0,0055721	
47,839	-0,0055721	
47,8685	-0,00525417	
47,8685	-0,00525417	
47,8981	0,00154019	
47,8981	0,00154019	
47,9272	-0,0093945	
47,9272	-0,0093945	
47,9572	-0,00602797	
47,9572	-0,00602797	
47,9865	-0,0029034	
47,9865	-0,0029034	
48,0162	-0,0302742	
48,0162	-0,0302742	
48,0456	-0,0159831	
48,0456	-0,0159831	
48,0753	-0,00939091	
48,0753	-0,00939091	
48,1046	-0,0307183	
48,1046	-0,0307183	
48,1341	-0,00448982	
48,1341	-0,00448982	
48,1637	-0,00460167	
48,1637	-0,00460167	
48,1935	-0,0226591	
48,1935	-0,0226591	
48,2227	-0,0109561	
48,2227	-0,0109561	
48,253	-0,0181196	
48,253	-0,0181196	
48,2825	-0,0394223	
48,2825	-0,0394223	
48,3114	-0,0233615	
48,3114	-0,0233615	
48,3407	-0,0166265	
48,3407	-0,0166265	
48,3708	-0,0085708	
48,3708	-0,0085708	
48,4001	-0,01746	
48,4001	-0,01746	
48,4294	-0,0112036	
48,4294	-0,0112036	
48,459	-0,0277249	
48,459	-0,0277249	
48,4889	0,00767488	
48,4889	0,00767488	
48,5178	-0,00829461	
48,5178	-0,00829461	
48,5482	0,00278161	
48,5482	0,00278161	
48,577	-0,00997852	
48,577	-0,00997852	
48,607	-0,0183988	
48,607	-0,0183988	
48,6364	-0,00876254	
48,6364	-0,00876254	
48,6663	-0,0195704	
48,6663	-0,0195704	
48,6952	-0,00828711	
48,6952	-0,00828711	
48,725	-0,00219253	
48,725	-0,00219253	
48,7548	-0,00728798	
48,7548	-0,00728798	
48,7839	-0,007047	
48,7839	-0,007047	
48,8133	-0,0340187	
48,8133	-0,0340187	
48,843	0,00678368	
48,843	0,00678368	
48,8731	-0,0180743	
48,8731	-0,0180743	
48,9022	-0,0240234	
48,9022	-0,0240234	
48,9314	-0,0285244	
48,9314	-0,0285244	
48,9612	-0,00494928	
48,9612	-0,00494928	
48,9909	-0,0216929	
48,9909	-0,0216929	
49,0206	-0,0171104	
49,0206	-0,0171104	
49,0498	0,000142908	
49,0498	0,000142908	
49,0794	-0,00900417	
49,0794	-0,00900417	
49,1092	-0,0204062	
49,1092	-0,0204062	
49,1388	-0,0133672	
49,1388	-0,0133672	
49,1677	-0,019347	
49,1677	-0,019347	
49,197	-0,0227631	
49,197	-0,0227631	
49,2269	0,00741466	
49,2269	0,00741466	
49,2565	-0,0136552	
49,2565	-0,0136552	
49,2856	-0,0355663	
49,2856	-0,0355663	
49,3155	-0,00947211	
49,3155	-0,00947211	
49,3447	-0,00369547	
49,3447	-0,00369547	
49,3746	-0,0139526	
49,3746	-0,0139526	
49,404	-0,0112998	
49,404	-0,0112998	
49,434	-0,0265252	
49,434	-0,0265252	
49,4631	0,0011228	
49,4631	0,0011228	
49,4926	-0,0158872	
49,4926	-0,0158872	
49,5226	-0,0398247	
49,5226	-0,0398247	
49,5519	-0,0286656	
49,5519	-0,0286656	
49,5811	0,0109592	
49,5811	0,0109592	
49,6104	0,0162389	
49,6104	0,0162389	
49,6407	-0,0163933	
49,6407	-0,0163933	
49,6699	-0,0315358	
49,6699	-0,0315358	
49,6996	-0,0312104	
49,6996	-0,0312104	
49,7293	0,00179389	
49,7293	0,00179389	
49,7582	-0,0045234	
49,7582	-0,0045234	
49,7886	-0,00287471	
49,7886	-0,00287471	
49,8177	-0,0129573	
49,8177	-0,0129573	
49,847	-0,00900483	
49,847	-0,00900483	
49,8766	-0,0166066	
49,8766	-0,0166066	
49,9062	0,00825564	
49,9062	0,00825564	
49,9363	-0,00611895	
49,9363	-0,00611895	
49,9651	-0,00594189	
49,9651	-0,00594189	
49,9951	-0,0107993	
49,9951	-0,0107993	
50,0243	0,00636662	
50,0243	0,00636662	
50,0541	-0,0222306	
50,0541	-0,0222306	
50,0834	-0,0182465	
50,0834	-0,0182465	
50,1132	-0,029085	
50,1132	-0,029085	
50,1425	-0,0186665	
50,1425	-0,0186665	
50,1732	-0,012448	
50,1732	-0,012448	
50,2016	-0,0290256	
50,2016	-0,0290256	
50,2314	-0,0186234	
50,2314	-0,0186234	
50,261	-0,00372188	
50,261	-0,00372188	
50,2907	-0,00790591	
50,2907	-0,00790591	
50,3203	-0,0197771	
50,3203	-0,0197771	
50,3504	-0,0123922	
50,3504	-0,0123922	
50,3794	-0,0145773	
50,3794	-0,0145773	
50,4091	-0,0120381	
50,4091	-0,0120381	
50,4388	-0,00999515	
50,4388	-0,00999515	
50,4683	-0,00163329	
50,4683	-0,00163329	
50,4979	-0,00364101	
50,4979	-0,00364101	
50,5272	-0,00752993	
50,5272	-0,00752993	
50,5571	-0,0265128	
50,5571	-0,0265128	
50,5861	-0,00473275	
50,5861	-0,00473275	
50,6155	-0,000594376	
50,6155	-0,000594376	
50,645	-0,025275	
50,645	-0,025275	
50,675	-0,0114195	
50,675	-0,0114195	
50,7039	-0,00164666	
50,7039	-0,00164666	
50,7345	0,00679314	
50,7345	0,00679314	
50,7632	-0,000784811	
50,7632	-0,000784811	
50,7932	-0,00805754	
50,7932	-0,00805754	
50,8227	-0,0335312	
50,8227	-0,0335312	
50,8516	0,000470952	
50,8516	0,000470952	
50,8817	0,0103194	
50,8817	0,0103194	
50,911	-0,022107	
50,911	-0,022107	
50,9404	-0,0270143	
50,9404	-0,0270143	
50,97	-0,0181036	
50,97	-0,0181036	
50,9996	-0,018524	
50,9996	-0,018524	
51,029	-0,00871624	
51,029	-0,00871624	
51,0586	-0,00640689	
51,0586	-0,00640689	
51,0883	-0,0180678	
51,0883	-0,0180678	
51,1177	-0,0206938	
51,1177	-0,0206938	
51,1476	-0,0162926	
51,1476	-0,0162926	
51,1769	-0,00818439	
51,1769	-0,00818439	
51,2068	0,00707129	
51,2068	0,00707129	
51,2362	-0,0176393	
51,2362	-0,0176393	
51,2659	-0,00924059	
51,2659	-0,00924059	
51,295	-0,0194077	
51,295	-0,0194077	
51,3251	-0,0129707	
51,3251	-0,0129707	
51,3543	-0,0379621	
51,3543	-0,0379621	
51,3836	-0,0126759	
51,3836	-0,0126759	
51,4133	-0,00819254	
51,4133	-0,00819254	
51,4429	-0,0613037	
51,4429	-0,0613037	
51,4726	0,0251378	
51,4726	0,0251378	
51,5019	-0,0388878	
51,5019	-0,0388878	
51,5313	0,0109214	
51,5313	0,0109214	
51,561	0,00668194	
51,561	0,00668194	
51,5906	-0,0290074	
51,5906	-0,0290074	
51,6203	-0,0358069	
51,6203	-0,0358069	
51,6495	0,00984304	
51,6495	0,00984304	
51,6788	-0,00340199	
51,6788	-0,00340199	
51,7081	0,0140652	
51,7081	0,0140652	
51,7374	-0,0138873	
51,7374	-0,0138873	
51,7674	-0,00866896	
51,7674	-0,00866896	
51,7976	-0,00521634	
51,7976	-0,00521634	
51,827	-0,0352751	
51,827	-0,0352751	
51,8567	0,00814216	
51,8567	0,00814216	
51,8856	-0,00262394	
51,8856	-0,00262394	
51,9149	-0,00343558	
51,9149	-0,00343558	
51,9451	-0,00751982	
51,9451	-0,00751982	
51,9748	-0,0254263	
51,9748	-0,0254263	
52,0042	0,00212389	
52,0042	0,00212389	
52,034	-0,0125699	
52,034	-0,0125699	
52,0633	-0,0267045	
52,0633	-0,0267045	
52,0928	-0,00556297	
52,0928	-0,00556297	
52,1225	-0,00472721	
52,1225	-0,00472721	
52,1514	-0,0297851	
52,1514	-0,0297851	
52,1813	-0,00401797	
52,1813	-0,00401797	
52,211	-0,021673	
52,211	-0,021673	
52,2404	-0,0209295	
52,2404	-0,0209295	
52,2691	0,00516368	
52,2691	0,00516368	
52,299	-0,0124278	
52,299	-0,0124278	
52,3286	-0,010483	
52,3286	-0,010483	
52,358	-0,0251638	
52,358	-0,0251638	
52,3877	-0,00926309	
52,3877	-0,00926309	
52,4178	-0,0166601	
52,4178	-0,0166601	
52,4472	-0,00822189	
52,4472	-0,00822189	
52,4767	-0,0105211	
52,4767	-0,0105211	
52,5056	-0,0371746	
52,5056	-0,0371746	
52,5349	0,00182128	
52,5349	0,00182128	
52,5645	0,00465531	
52,5645	0,00465531	
52,5937	-0,00766558	
52,5937	-0,00766558	
52,6239	-0,0135022	
52,6239	-0,0135022	
52,6529	-0,0407579	
52,6529	-0,0407579	
52,6829	-0,020757	
52,6829	-0,020757	
52,7122	-0,013931	
52,7122	-0,013931	
52,7417	0,00242683	
52,7417	0,00242683	
52,7718	-0,0124144	
52,7718	-0,0124144	
52,8012	-0,0226894	
52,8012	-0,0226894	
52,8304	-0,021344	
52,8304	-0,021344	
52,8602	-0,0164823	
52,8602	-0,0164823	
52,8896	-0,00814493	
52,8896	-0,00814493	
52,9183	0,00337248	
52,9183	0,00337248	
52,9481	-0,0121565	
52,9481	-0,0121565	
52,9783	-0,0169594	
52,9783	-0,0169594	
53,0075	-0,00909841	
53,0075	-0,00909841	
53,0376	0,00367411	
53,0376	0,00367411	
53,0669	-0,0145855	
53,0669	-0,0145855	
53,0964	-0,00652037	
53,0964	-0,00652037	
53,1259	-0,019153	
53,1259	-0,019153	
53,1556	0,000655844	
53,1556	0,000655844	
53,1848	-0,0203801	
53,1848	-0,0203801	
53,2152	-0,00626602	
53,2152	-0,00626602	
53,2448	-0,00308601	
53,2448	-0,00308601	
53,2737	-0,0229901	
53,2737	-0,0229901	
53,3036	-0,0242944	
53,3036	-0,0242944	
53,3332	9,62778E-5	
53,3332	9,62778E-5	
53,3621	-0,0170194	
53,3621	-0,0170194	
53,3915	-0,020039	
53,3915	-0,020039	
53,4208	-0,0475184	
53,4208	-0,0475184	
53,451	0,00165465	
53,451	0,00165465	
53,4805	-0,00837776	
53,4805	-0,00837776	
53,5105	-0,00511134	
53,5105	-0,00511134	
53,5397	-0,00140144	
53,5397	-0,00140144	
53,5694	-0,0175242	
53,5694	-0,0175242	
53,5992	-0,00299536	
53,5992	-0,00299536	
53,6284	-0,0184098	
53,6284	-0,0184098	
53,6578	-0,0038859	
53,6578	-0,0038859	
53,688	-0,0182722	
53,688	-0,0182722	
53,7172	-0,0164377	
53,7172	-0,0164377	
53,7473	-0,013873	
53,7473	-0,013873	
53,7768	-0,00966744	
53,7768	-0,00966744	
53,8062	-0,01893	
53,8062	-0,01893	
53,8361	-0,058425	
53,8361	-0,058425	
53,8655	0,0387497	
53,8655	0,0387497	
53,895	-0,00536308	
53,895	-0,00536308	
53,9245	-0,0208304	
53,9245	-0,0208304	
53,9539	0,001549	
53,9539	0,001549	
53,9834	-0,00716113	
53,9834	-0,00716113	
54,0132	-0,0133923	
54,0132	-0,0133923	
54,0426	-0,00103981	
54,0426	-0,00103981	
54,0723	-0,0259692	
54,0723	-0,0259692	
54,1016	-0,0155214	
54,1016	-0,0155214	
54,1319	-0,0061871	
54,1319	-0,0061871	
54,1612	-0,0198968	
54,1612	-0,0198968	
54,1903	-0,0348218	
54,1903	-0,0348218	
54,2196	0,0193478	
54,2196	0,0193478	
54,2494	-0,017637	
54,2494	-0,017637	
54,2791	-0,0205288	
54,2791	-0,0205288	
54,3084	-0,00361656	
54,3084	-0,00361656	
54,3379	-0,0220764	
54,3379	-0,0220764	
54,3675	-0,0109372	
54,3675	-0,0109372	
54,3976	-0,0289516	
54,3976	-0,0289516	
54,4268	-0,0156736	
54,4268	-0,0156736	
54,4562	0,00263357	
54,4562	0,00263357	
54,4857	0,015394	
54,4857	0,015394	
54,5154	-0,0151128	
54,5154	-0,0151128	
54,5444	-0,0296207	
54,5444	-0,0296207	
54,5741	0,00161454	
54,5741	0,00161454	
54,6041	0,0197525	
54,6041	0,0197525	
54,6331	-0,0323106	
54,6331	-0,0323106	
54,6629	-0,0202542	
54,6629	-0,0202542	
54,6924	-0,00752569	
54,6924	-0,00752569	
54,7223	-0,0778618	
54,7223	-0,0778618	
54,7517	0,0244436	
54,7517	0,0244436	
54,7807	-0,00339645	
54,7807	-0,00339645	
54,8103	-0,00392569	
54,8103	-0,00392569	
54,84	-0,0225238	
54,84	-0,0225238	
54,8692	-0,043273	
54,8692	-0,043273	
54,8991	-0,0122396	
54,8991	-0,0122396	
54,9288	-0,0117642	
54,9288	-0,0117642	
54,9583	0,0344251	
54,9583	0,0344251	
54,9875	0,00124606	
54,9875	0,00124606	
55,0172	-0,00926504	
