Masse - Plot 0	Amplitude (V) - Plot 0	scangeschw: 10 s/amu druck 1.2 E -5mbar
0,102754	0,140142	
0,102754	0,140142	
0,132634	0,138699	
0,132634	0,138699	
0,162686	0,0994552	
0,162686	0,0994552	
0,192595	0,02222	
0,192595	0,02222	
0,222455	0,0413871	
0,222455	0,0413871	
0,252278	-0,0198531	
0,252278	-0,0198531	
0,281695	-0,0307425	
0,281695	-0,0307425	
0,3119	-0,034317	
0,3119	-0,034317	
0,342243	0,0307257	
0,342243	0,0307257	
0,371741	0,0981286	
0,371741	0,0981286	
0,401597	0,075954	
0,401597	0,075954	
0,431914	0,080878	
0,431914	0,080878	
0,461255	0,0173157	
0,461255	0,0173157	
0,491134	0,0706016	
0,491134	0,0706016	
0,520926	0,0731898	
0,520926	0,0731898	
0,550189	0,102889	
0,550189	0,102889	
0,580727	0,118608	
0,580727	0,118608	
0,610238	0,0423667	
0,610238	0,0423667	
0,639964	0,0782872	
0,639964	0,0782872	
0,669873	0,140667	
0,669873	0,140667	
0,699808	0,184659	
0,699808	0,184659	
0,729178	0,164071	
0,729178	0,164071	
0,759038	0,194789	
0,759038	0,194789	
0,788624	0,183681	
0,788624	0,183681	
0,818719	0,179283	
0,818719	0,179283	
0,848438	0,123226	
0,848438	0,123226	
0,878168	0,145268	
0,878168	0,145268	
0,908067	0,190468	
0,908067	0,190468	
0,937183	0,219834	
0,937183	0,219834	
0,96778	0,210084	
0,96778	0,210084	
0,997154	0,172986	
0,997154	0,172986	
1,02723	0,0172769	
1,02723	0,0172769	
1,05636	0,00721933	
1,05636	0,00721933	
1,08661	0,011464	
1,08661	0,011464	
1,11619	-0,0534453	
1,11619	-0,0534453	
1,14627	-0,0814758	
1,14627	-0,0814758	
1,17581	-0,194704	
1,17581	-0,194704	
1,20577	-0,199808	
1,20577	-0,199808	
1,23489	-0,286467	
1,23489	-0,286467	
1,26497	-0,225346	
1,26497	-0,225346	
1,29473	-0,301412	
1,29473	-0,301412	
1,32456	-0,115622	
1,32456	-0,115622	
1,35416	-0,00573026	
1,35416	-0,00573026	
1,38406	-0,0829814	
1,38406	-0,0829814	
1,41374	-0,0139871	
1,41374	-0,0139871	
1,4432	-0,0424549	
1,4432	-0,0424549	
1,47322	-0,073756	
1,47322	-0,073756	
1,50267	-0,0826406	
1,50267	-0,0826406	
1,53291	-0,0693369	
1,53291	-0,0693369	
1,56206	-0,0439565	
1,56206	-0,0439565	
1,59193	-0,0198097	
1,59193	-0,0198097	
1,62159	-0,0153088	
1,62159	-0,0153088	
1,65093	-0,0288417	
1,65093	-0,0288417	
1,68085	-0,0289412	
1,68085	-0,0289412	
1,71113	-0,033465	
1,71113	-0,033465	
1,74082	-0,00377047	
1,74082	-0,00377047	
1,77068	-0,050985	
1,77068	-0,050985	
1,80019	-0,0388784	
1,80019	-0,0388784	
1,8298	-0,0102169	
1,8298	-0,0102169	
1,85962	-0,0626068	
1,85962	-0,0626068	
1,88885	-0,033751	
1,88885	-0,033751	
1,91916	-0,0311791	
1,91916	-0,0311791	
1,94844	-0,0255326	
1,94844	-0,0255326	
1,97827	-0,0448399	
1,97827	-0,0448399	
2,00835	-0,0260703	
2,00835	-0,0260703	
2,03787	0,00375726	
2,03787	0,00375726	
2,06772	0,00203063	
2,06772	0,00203063	
2,09778	-0,0338485	
2,09778	-0,0338485	
2,12718	-0,00684971	
2,12718	-0,00684971	
2,15655	-0,0193862	
2,15655	-0,0193862	
2,1865	-0,0117655	
2,1865	-0,0117655	
2,21616	0,00235443	
2,21616	0,00235443	
2,24599	0,0122104	
2,24599	0,0122104	
2,27574	0,0168569	
2,27574	0,0168569	
2,30531	0,00505085	
2,30531	0,00505085	
2,33476	0,0620568	
2,33476	0,0620568	
2,36495	0,0577049	
2,36495	0,0577049	
2,39442	0,0641099	
2,39442	0,0641099	
2,42388	0,0654958	
2,42388	0,0654958	
2,45336	0,0631182	
2,45336	0,0631182	
2,48307	0,0728647	
2,48307	0,0728647	
2,51321	0,0554532	
2,51321	0,0554532	
2,54293	0,0188303	
2,54293	0,0188303	
2,57282	-0,0148082	
2,57282	-0,0148082	
2,60223	-0,0202718	
2,60223	-0,0202718	
2,63181	-0,0157222	
2,63181	-0,0157222	
2,66229	-0,0142731	
2,66229	-0,0142731	
2,69169	-0,0252202	
2,69169	-0,0252202	
2,72132	-0,00787135	
2,72132	-0,00787135	
2,75085	-0,029487	
2,75085	-0,029487	
2,78056	-0,00883396	
2,78056	-0,00883396	
2,80962	-0,0200781	
2,80962	-0,0200781	
2,84	-0,0283523	
2,84	-0,0283523	
2,86924	-0,00722243	
2,86924	-0,00722243	
2,89978	-0,0118098	
2,89978	-0,0118098	
2,92886	-0,00914015	
2,92886	-0,00914015	
2,95898	-0,00154296	
2,95898	-0,00154296	
2,98889	-0,022334	
2,98889	-0,022334	
3,01864	-0,0176227	
3,01864	-0,0176227	
3,04804	-0,0251289	
3,04804	-0,0251289	
3,07771	-0,0181936	
3,07771	-0,0181936	
3,10749	-0,0219319	
3,10749	-0,0219319	
3,1374	-0,027387	
3,1374	-0,027387	
3,16708	-0,0160376	
3,16708	-0,0160376	
3,19653	-0,0120586	
3,19653	-0,0120586	
3,22642	-0,0189903	
3,22642	-0,0189903	
3,25612	-0,0274317	
3,25612	-0,0274317	
3,28578	-0,0384342	
3,28578	-0,0384342	
3,3156	0,00344683	
3,3156	0,00344683	
3,34527	-0,0449667	
3,34527	-0,0449667	
3,37529	0,000607583	
3,37529	0,000607583	
3,40466	-0,0110722	
3,40466	-0,0110722	
3,43406	-0,00454754	
3,43406	-0,00454754	
3,46399	-0,00404895	
3,46399	-0,00404895	
3,49385	-0,0309	
3,49385	-0,0309	
3,52326	-0,0116615	
3,52326	-0,0116615	
3,55345	-0,0255636	
3,55345	-0,0255636	
3,58287	-0,0043871	
3,58287	-0,0043871	
3,61289	-0,0145177	
3,61289	-0,0145177	
3,64205	-0,0296524	
3,64205	-0,0296524	
3,67198	0,00940934	
3,67198	0,00940934	
3,70167	-0,0163291	
3,70167	-0,0163291	
3,73152	-0,0196601	
3,73152	-0,0196601	
3,76098	-0,00781591	
3,76098	-0,00781591	
3,79094	-0,0140543	
3,79094	-0,0140543	
3,82058	-0,0023859	
3,82058	-0,0023859	
3,84971	-0,0242589	
3,84971	-0,0242589	
3,87938	-0,0253193	
3,87938	-0,0253193	
3,90925	-0,0031871	
3,90925	-0,0031871	
3,93881	-0,00498319	
3,93881	-0,00498319	
3,96867	-0,0239957	
3,96867	-0,0239957	
3,99841	-0,0219075	
3,99841	-0,0219075	
4,02782	-0,014954	
4,02782	-0,014954	
4,05815	-0,0135371	
4,05815	-0,0135371	
4,08736	-0,0129485	
4,08736	-0,0129485	
4,11654	-0,0405887	
4,11654	-0,0405887	
4,14648	-0,00700232	
4,14648	-0,00700232	
4,17621	-0,0171994	
4,17621	-0,0171994	
4,20627	-0,0071908	
4,20627	-0,0071908	
4,23589	-0,0210332	
4,23589	-0,0210332	
4,26515	-0,00608765	
4,26515	-0,00608765	
4,29535	-0,0229685	
4,29535	-0,0229685	
4,32505	-0,0105978	
4,32505	-0,0105978	
4,35422	-0,00763167	
4,35422	-0,00763167	
4,38414	-0,0326729	
4,38414	-0,0326729	
4,41393	-0,0211747	
4,41393	-0,0211747	
4,44332	-0,0040558	
4,44332	-0,0040558	
4,47296	-0,0173025	
4,47296	-0,0173025	
4,50249	-0,0117224	
4,50249	-0,0117224	
4,53204	-0,016993	
4,53204	-0,016993	
4,56196	-0,0202643	
4,56196	-0,0202643	
4,59165	-0,00982559	
4,59165	-0,00982559	
4,62157	-0,0135299	
4,62157	-0,0135299	
4,65134	0,00359878	
4,65134	0,00359878	
4,68048	-0,0279652	
4,68048	-0,0279652	
4,71032	-0,0153071	
4,71032	-0,0153071	
4,73983	-0,0112046	
4,73983	-0,0112046	
4,76961	-0,0153456	
4,76961	-0,0153456	
4,79947	-0,00207644	
4,79947	-0,00207644	
4,82862	-0,0184793	
4,82862	-0,0184793	
4,85884	-0,0262907	
4,85884	-0,0262907	
4,88865	-0,0205085	
4,88865	-0,0205085	
4,91821	-0,00689537	
4,91821	-0,00689537	
4,94777	-0,0262744	
4,94777	-0,0262744	
4,97707	-0,000421875	
4,97707	-0,000421875	
5,00694	-0,00979461	
5,00694	-0,00979461	
5,03673	-0,0303557	
5,03673	-0,0303557	
5,06658	0,00670249	
5,06658	0,00670249	
5,09629	-0,0100082	
5,09629	-0,0100082	
5,12622	-0,015326	
5,12622	-0,015326	
5,15487	-0,0413475	
5,15487	-0,0413475	
5,18521	-2,50267E-5	
5,18521	-2,50267E-5	
5,2151	-0,0129736	
5,2151	-0,0129736	
5,24498	-0,0254983	
5,24498	-0,0254983	
5,27437	-0,00678547	
5,27437	-0,00678547	
5,30346	-0,00423775	
5,30346	-0,00423775	
5,33348	-0,0135374	
5,33348	-0,0135374	
5,36324	-0,0102489	
5,36324	-0,0102489	
5,39242	-0,0266282	
5,39242	-0,0266282	
5,42218	-0,0333032	
5,42218	-0,0333032	
5,45176	-0,00272797	
5,45176	-0,00272797	
5,48182	-0,00454623	
5,48182	-0,00454623	
5,51132	-0,0104572	
5,51132	-0,0104572	
5,54054	-0,0247966	
5,54054	-0,0247966	
5,57048	-0,022212	
5,57048	-0,022212	
5,60001	-0,0137106	
5,60001	-0,0137106	
5,62948	-0,0213694	
5,62948	-0,0213694	
5,65951	-0,00915515	
5,65951	-0,00915515	
5,68945	-0,00990124	
5,68945	-0,00990124	
5,71902	-0,0441952	
5,71902	-0,0441952	
5,74815	2,77994E-5	
5,74815	2,77994E-5	
5,77811	0,00169802	
5,77811	0,00169802	
5,80708	-0,0134804	
5,80708	-0,0134804	
5,83713	-0,0107484	
5,83713	-0,0107484	
5,86681	-0,0229239	
5,86681	-0,0229239	
5,89668	-0,0244679	
5,89668	-0,0244679	
5,92597	-0,0206243	
5,92597	-0,0206243	
5,95578	-0,0270336	
5,95578	-0,0270336	
5,98571	-0,00879059	
5,98571	-0,00879059	
6,01542	-0,0013809	
6,01542	-0,0013809	
6,04534	-0,0564212	
6,04534	-0,0564212	
6,07455	-0,0194073	
6,07455	-0,0194073	
6,10445	0,0031615	
6,10445	0,0031615	
6,13383	-0,0206204	
6,13383	-0,0206204	
6,16323	-0,00104177	
6,16323	-0,00104177	
6,19318	0,0152877	
6,19318	0,0152877	
6,22261	-0,00795385	
6,22261	-0,00795385	
6,25185	-0,0258632	
6,25185	-0,0258632	
6,28221	-0,0179341	
6,28221	-0,0179341	
6,31222	-0,00624515	
6,31222	-0,00624515	
6,34187	-0,0227308	
6,34187	-0,0227308	
6,37138	-0,006657	
6,37138	-0,006657	
6,40075	-0,0104468	
6,40075	-0,0104468	
6,43056	-0,0315636	
6,43056	-0,0315636	
6,46037	-0,0229969	
6,46037	-0,0229969	
6,49005	-0,019677	
6,49005	-0,019677	
6,51956	-0,0184141	
6,51956	-0,0184141	
6,54943	-0,00942613	
6,54943	-0,00942613	
6,57864	-0,00841363	
6,57864	-0,00841363	
6,60839	-0,0154167	
6,60839	-0,0154167	
6,63802	-0,013859	
6,63802	-0,013859	
6,66767	-0,00299373	
6,66767	-0,00299373	
6,69781	-0,00942287	
6,69781	-0,00942287	
6,72737	-0,0316872	
6,72737	-0,0316872	
6,75662	0,000894866	
6,75662	0,000894866	
6,78645	-0,0114068	
6,78645	-0,0114068	
6,81603	0,0110479	
6,81603	0,0110479	
6,84587	-0,0350214	
6,84587	-0,0350214	
6,87524	-0,00615678	
6,87524	-0,00615678	
6,90514	-0,0157317	
6,90514	-0,0157317	
6,93465	-0,0332361	
6,93465	-0,0332361	
6,96427	-0,0203758	
6,96427	-0,0203758	
6,99439	0,00337965	
6,99439	0,00337965	
7,02437	-0,00548536	
7,02437	-0,00548536	
7,05385	0,00169835	
7,05385	0,00169835	
7,08357	0,0148459	
7,08357	0,0148459	
7,11371	-0,0158041	
7,11371	-0,0158041	
7,14288	-0,0202712	
7,14288	-0,0202712	
7,17243	-0,00631493	
7,17243	-0,00631493	
7,20191	-0,00799852	
7,20191	-0,00799852	
7,23152	-0,000217418	
7,23152	-0,000217418	
7,26154	0,0176313	
7,26154	0,0176313	
7,29127	-0,0133976	
7,29127	-0,0133976	
7,32071	0,00712705	
7,32071	0,00712705	
7,3505	-0,0173132	
7,3505	-0,0173132	
7,38047	-0,020729	
7,38047	-0,020729	
7,40963	0,00425063	
7,40963	0,00425063	
7,43922	-0,0456642	
7,43922	-0,0456642	
7,46867	-0,0206041	
7,46867	-0,0206041	
7,49824	-0,00574852	
7,49824	-0,00574852	
7,52803	-0,0194921	
7,52803	-0,0194921	
7,55808	0,000488561	
7,55808	0,000488561	
7,58715	0,00337248	
7,58715	0,00337248	
7,61718	-0,00759939	
7,61718	-0,00759939	
7,64696	-0,0378228	
7,64696	-0,0378228	
7,67673	-0,0280496	
7,67673	-0,0280496	
7,70608	-0,030462	
7,70608	-0,030462	
7,73584	-0,0200537	
7,73584	-0,0200537	
7,76536	0,00915369	
7,76536	0,00915369	
7,79505	-0,0153583	
7,79505	-0,0153583	
7,82398	-0,0233576	
7,82398	-0,0233576	
7,85415	-0,0258919	
7,85415	-0,0258919	
7,88445	-0,018763	
7,88445	-0,018763	
7,91353	-0,0169004	
7,91353	-0,0169004	
7,94333	-0,00922494	
7,94333	-0,00922494	
7,97286	-0,0152996	
7,97286	-0,0152996	
8,00278	-0,0318127	
8,00278	-0,0318127	
8,03185	0,00221943	
8,03185	0,00221943	
8,06154	-0,0146722	
8,06154	-0,0146722	
8,09116	0,0049915	
8,09116	0,0049915	
8,12084	-0,0191233	
8,12084	-0,0191233	
8,1507	-0,013151	
8,1507	-0,013151	
8,18012	-0,0156042	
8,18012	-0,0156042	
8,21004	-0,0058408	
8,21004	-0,0058408	
8,23924	-0,00728113	
8,23924	-0,00728113	
8,26849	-0,0307979	
8,26849	-0,0307979	
8,29849	-0,0180404	
8,29849	-0,0180404	
8,32825	0,0018115	
8,32825	0,0018115	
8,35771	-0,00947602	
8,35771	-0,00947602	
8,38726	0,00250574	
8,38726	0,00250574	
8,41725	-0,0492297	
8,41725	-0,0492297	
8,44701	0,0107825	
8,44701	0,0107825	
8,47656	-0,0190933	
8,47656	-0,0190933	
8,50658	-0,0148946	
8,50658	-0,0148946	
8,536	-0,0156303	
8,536	-0,0156303	
8,56565	-0,01207	
8,56565	-0,01207	
8,5951	-0,0140448	
8,5951	-0,0140448	
8,62466	-0,00658526	
8,62466	-0,00658526	
8,65408	-0,0259594	
8,65408	-0,0259594	
8,68367	-0,0197155	
8,68367	-0,0197155	
8,71325	0,00572814	
8,71325	0,00572814	
8,74291	-0,0142477	
8,74291	-0,0142477	
8,77263	-0,0581782	
8,77263	-0,0581782	
8,80183	-4,78529E-5	
8,80183	-4,78529E-5	
8,83154	-0,00158633	
8,83154	-0,00158633	
8,86138	-0,0589393	
8,86138	-0,0589393	
8,89064	0,000636279	
8,89064	0,000636279	
8,92053	0,00589216	
8,92053	0,00589216	
8,95031	0,0186513	
8,95031	0,0186513	
8,9801	-0,0370317	
8,9801	-0,0370317	
9,00953	-0,00685982	
9,00953	-0,00685982	
9,03957	-0,0138251	
9,03957	-0,0138251	
9,0688	-0,011065	
9,0688	-0,011065	
9,09835	-0,0141899	
9,09835	-0,0141899	
9,12781	-0,0301467	
9,12781	-0,0301467	
9,1576	-0,0261603	
9,1576	-0,0261603	
9,18699	-0,0496432	
9,18699	-0,0496432	
9,21696	-0,00975548	
9,21696	-0,00975548	
9,24667	0,00520705	
9,24667	0,00520705	
9,27617	0,0178967	
9,27617	0,0178967	
9,30587	0,0156614	
9,30587	0,0156614	
9,33539	-0,0190891	
9,33539	-0,0190891	
9,36509	-0,0166183	
9,36509	-0,0166183	
9,39474	-0,0424503	
9,39474	-0,0424503	
9,42443	-0,0158135	
9,42443	-0,0158135	
9,45381	0,0193195	
9,45381	0,0193195	
9,48319	-0,025572	
9,48319	-0,025572	
9,51298	0,0134877	
9,51298	0,0134877	
9,54263	-0,00793461	
9,54263	-0,00793461	
9,57223	-0,0520578	
9,57223	-0,0520578	
9,60175	-0,0402306	
9,60175	-0,0402306	
9,63203	0,0339719	
9,63203	0,0339719	
9,66139	-0,0504561	
9,66139	-0,0504561	
9,69062	0,0148276	
9,69062	0,0148276	
9,72079	-0,0171707	
9,72079	-0,0171707	
9,7502	-0,0315779	
9,7502	-0,0315779	
9,78008	-0,00260862	
9,78008	-0,00260862	
9,8099	-0,0115617	
9,8099	-0,0115617	
9,83903	-0,0153798	
9,83903	-0,0153798	
9,86851	-0,0709471	
9,86851	-0,0709471	
9,89806	0,014254	
9,89806	0,014254	
9,92818	-0,0413273	
9,92818	-0,0413273	
9,95742	0,0169879	
9,95742	0,0169879	
9,98724	-0,0251361	
9,98724	-0,0251361	
10,017	-0,00768189	
10,017	-0,00768189	
10,0462	-0,0145747	
10,0462	-0,0145747	
10,0759	0,0250912	
10,0759	0,0250912	
10,1056	-0,0117247	
10,1056	-0,0117247	
10,1347	-0,02703	
10,1347	-0,02703	
10,1649	-0,00150188	
10,1649	-0,00150188	
10,1947	-0,012386	
10,1947	-0,012386	
10,2241	-0,0054433	
10,2241	-0,0054433	
10,2542	-0,0193822	
10,2542	-0,0193822	
10,2835	-0,00971407	
10,2835	-0,00971407	
10,3135	-0,0190591	
10,3135	-0,0190591	
10,3432	-0,0392547	
10,3432	-0,0392547	
10,3731	0,00736216	
10,3731	0,00736216	
10,4022	-0,00831254	
10,4022	-0,00831254	
10,4318	-0,0262434	
10,4318	-0,0262434	
10,4618	-0,0164957	
10,4618	-0,0164957	
10,4914	-0,0376565	
10,4914	-0,0376565	
10,5205	0,00798108	
10,5205	0,00798108	
10,5508	0,00272552	
10,5508	0,00272552	
10,58	0,000459539	
10,58	0,000459539	
10,6093	-0,0404263	
10,6093	-0,0404263	
10,639	0,00676216	
10,639	0,00676216	
10,669	-0,0633917	
10,669	-0,0633917	
10,6989	0,0195719	
10,6989	0,0195719	
10,7282	-0,0293612	
10,7282	-0,0293612	
10,758	-0,00728602	
10,758	-0,00728602	
10,7873	-0,0171815	
10,7873	-0,0171815	
10,8168	-0,0149181	
10,8168	-0,0149181	
10,8463	-0,0391014	
10,8463	-0,0391014	
10,876	3,07342E-5	
10,876	3,07342E-5	
10,9059	-0,0186573	
10,9059	-0,0186573	
10,9356	0,0049589	
10,9356	0,0049589	
10,9651	-0,00125862	
10,9651	-0,00125862	
10,9944	-0,0289911	
10,9944	-0,0289911	
11,0242	0,000702475	
11,0242	0,000702475	
11,0539	0,00124541	
11,0539	0,00124541	
11,084	-0,0204231	
11,084	-0,0204231	
11,1133	-0,0121731	
11,1133	-0,0121731	
11,1427	-0,0247382	
11,1427	-0,0247382	
11,1721	-0,0141358	
11,1721	-0,0141358	
11,2018	-0,00876483	
11,2018	-0,00876483	
11,2313	-0,00813809	
11,2313	-0,00813809	
11,2611	-0,0177932	
11,2611	-0,0177932	
11,2909	0,00236943	
11,2909	0,00236943	
11,3206	-0,0192834	
11,3206	-0,0192834	
11,35	-0,00118166	
11,35	-0,00118166	
11,3795	-0,00738678	
11,3795	-0,00738678	
11,4091	-0,0188109	
11,4091	-0,0188109	
11,4388	-0,0125999	
11,4388	-0,0125999	
11,4685	0,00339824	
11,4685	0,00339824	
11,4979	-0,0079333	
11,4979	-0,0079333	
11,5276	-0,0178829	
11,5276	-0,0178829	
11,5571	-0,0143364	
11,5571	-0,0143364	
11,587	-0,0220796	
11,587	-0,0220796	
11,6165	-0,00809798	
11,6165	-0,00809798	
11,6458	0,0107815	
11,6458	0,0107815	
11,6756	-0,0307356	
11,6756	-0,0307356	
11,705	0,00757053	
11,705	0,00757053	
11,7352	0,00527259	
11,7352	0,00527259	
11,7647	-0,0208089	
11,7647	-0,0208089	
11,7942	0,0094638	
11,7942	0,0094638	
11,8241	0,0150497	
11,8241	0,0150497	
11,8535	0,00290324	
11,8535	0,00290324	
11,8831	0,00721379	
11,8831	0,00721379	
11,913	0,033368	
11,913	0,033368	
11,9423	-0,00602569	
11,9423	-0,00602569	
11,9718	0,0204243	
11,9718	0,0204243	
12,0012	0,0222233	
12,0012	0,0222233	
12,0313	0,0456351	
12,0313	0,0456351	
12,0606	0,0236496	
12,0606	0,0236496	
12,0904	0,0482245	
12,0904	0,0482245	
12,1195	0,0168275	
12,1195	0,0168275	
12,1495	0,0180767	
12,1495	0,0180767	
12,1789	0,0260075	
12,1789	0,0260075	
12,2083	0,0516696	
12,2083	0,0516696	
12,2378	0,0139032	
12,2378	0,0139032	
12,268	0,0229325	
12,268	0,0229325	
12,2979	0,0181531	
12,2979	0,0181531	
12,3272	0,0162402	
12,3272	0,0162402	
12,3564	0,00425194	
12,3564	0,00425194	
12,3862	-0,00605536	
12,3862	-0,00605536	
12,416	-0,0226281	
12,416	-0,0226281	
12,4456	-0,0189531	
12,4456	-0,0189531	
12,4746	-0,0164686	
12,4746	-0,0164686	
12,5045	-0,0134152	
12,5045	-0,0134152	
12,5345	-0,0106023	
12,5345	-0,0106023	
12,5636	-0,00773211	
12,5636	-0,00773211	
12,5935	-0,0075283	
12,5935	-0,0075283	
12,6231	-0,00492254	
12,6231	-0,00492254	
12,6526	-0,00980276	
12,6526	-0,00980276	
12,6823	-0,00734961	
12,6823	-0,00734961	
12,7123	-0,0100522	
12,7123	-0,0100522	
12,7417	-0,0191207	
12,7417	-0,0191207	
12,7714	-0,00296699	
12,7714	-0,00296699	
12,8008	-0,0341729	
12,8008	-0,0341729	
12,8301	0,00494846	
12,8301	0,00494846	
12,86	-0,0283095	
12,86	-0,0283095	
12,8893	0,00426172	
12,8893	0,00426172	
12,9193	-0,00703591	
12,9193	-0,00703591	
12,9488	-0,000911985	
12,9488	-0,000911985	
12,9783	-0,00530536	
12,9783	-0,00530536	
13,0085	-0,00710667	
13,0085	-0,00710667	
13,0377	-0,00318742	
13,0377	-0,00318742	
13,0673	-0,00195481	
13,0673	-0,00195481	
13,0967	-0,00417873	
13,0967	-0,00417873	
13,1264	-0,00624221	
13,1264	-0,00624221	
13,1553	-0,0142848	
13,1553	-0,0142848	
13,1857	-0,00929113	
13,1857	-0,00929113	
13,2153	-0,0163601	
13,2153	-0,0163601	
13,245	-0,000971007	
13,245	-0,000971007	
13,274	-0,0106297	
13,274	-0,0106297	
13,3035	-0,00514199	
13,3035	-0,00514199	
13,3332	-0,00241003	
13,3332	-0,00241003	
13,3629	-0,00123938	
13,3629	-0,00123938	
13,3931	-0,00544688	
13,3931	-0,00544688	
13,4224	-0,0111104	
13,4224	-0,0111104	
13,452	0,00396759	
13,452	0,00396759	
13,4816	0,00344813	
13,4816	0,00344813	
13,511	-0,0367206	
13,511	-0,0367206	
13,5406	0,0167033	
13,5406	0,0167033	
13,5703	0,0251137	
13,5703	0,0251137	
13,6	0,000528018	
13,6	0,000528018	
13,6296	-0,0161924	
13,6296	-0,0161924	
13,6593	0,0605288	
13,6593	0,0605288	
13,6893	0,0226553	
13,6893	0,0226553	
13,7189	0,0595368	
13,7189	0,0595368	
13,7486	0,0909012	
13,7486	0,0909012	
13,7785	0,0854898	
13,7785	0,0854898	
13,8083	0,131514	
13,8083	0,131514	
13,8377	0,199601	
13,8377	0,199601	
13,867	0,262601	
13,867	0,262601	
13,8969	0,33485	
13,8969	0,33485	
13,9263	0,391589	
13,9263	0,391589	
13,9561	0,423729	
13,9561	0,423729	
13,9858	0,492062	
13,9858	0,492062	
14,0151	0,51784	
14,0151	0,51784	
14,0449	0,552108	
14,0449	0,552108	
14,0744	0,537729	
14,0744	0,537729	
14,1039	0,566923	
14,1039	0,566923	
14,1334	0,551942	
14,1334	0,551942	
14,1625	0,536513	
14,1625	0,536513	
14,1925	0,521912	
14,1925	0,521912	
14,2227	0,479519	
14,2227	0,479519	
14,2519	0,453636	
14,2519	0,453636	
14,2816	0,413914	
14,2816	0,413914	
14,3112	0,368416	
14,3112	0,368416	
14,3411	0,293615	
14,3411	0,293615	
14,3703	0,171687	
14,3703	0,171687	
14,3997	0,0698601	
14,3997	0,0698601	
14,4299	0,00392194	
14,4299	0,00392194	
14,4594	-0,0150048	
14,4594	-0,0150048	
14,4883	-0,0431377	
14,4883	-0,0431377	
14,5183	0,0302268	
14,5183	0,0302268	
14,5478	-0,0238154	
14,5478	-0,0238154	
14,5774	-0,0275716	
14,5774	-0,0275716	
14,6075	-0,0211412	
14,6075	-0,0211412	
14,6371	-0,0201423	
14,6371	-0,0201423	
14,6667	-0,0167047	
14,6667	-0,0167047	
14,6955	0,00501629	
14,6955	0,00501629	
14,7252	-0,0268412	
14,7252	-0,0268412	
14,7547	-0,0259079	
14,7547	-0,0259079	
14,7845	-0,00660906	
14,7845	-0,00660906	
14,8143	-0,0142728	
14,8143	-0,0142728	
14,8436	-0,0100643	
14,8436	-0,0100643	
14,8735	0,00150824	
14,8735	0,00150824	
14,9032	-0,0353475	
14,9032	-0,0353475	
14,9331	-0,00383047	
14,9331	-0,00383047	
14,9619	-0,0121786	
14,9619	-0,0121786	
14,9918	-0,00598036	
14,9918	-0,00598036	
15,021	-0,036331	
15,021	-0,036331	
15,0511	0,0111298	
15,0511	0,0111298	
15,081	0,0149584	
15,081	0,0149584	
15,1104	-0,0222264	
15,1104	-0,0222264	
15,1396	0,0126826	
15,1396	0,0126826	
15,1697	-0,0173823	
15,1697	-0,0173823	
15,1991	-0,00551667	
15,1991	-0,00551667	
15,2287	-0,011083	
15,2287	-0,011083	
15,2583	0,00042367	
15,2583	0,00042367	
15,2881	-0,00236894	
15,2881	-0,00236894	
15,3167	0,00411694	
15,3167	0,00411694	
15,3471	-0,0311025	
15,3471	-0,0311025	
15,3766	-0,0014122	
15,3766	-0,0014122	
15,4061	-0,00266862	
15,4061	-0,00266862	
15,4358	-0,00669189	
15,4358	-0,00669189	
15,4654	-0,0119742	
15,4654	-0,0119742	
15,4949	-0,0149341	
15,4949	-0,0149341	
15,5242	-0,0204273	
15,5242	-0,0204273	
15,5539	-0,0166561	
15,5539	-0,0166561	
15,5838	-0,00757069	
15,5838	-0,00757069	
15,6131	-0,00586852	
15,6131	-0,00586852	
15,6427	-0,0058796	
15,6427	-0,0058796	
15,6727	-0,00316786	
15,6727	-0,00316786	
15,702	0,00314031	
15,702	0,00314031	
15,7318	0,0254737	
15,7318	0,0254737	
15,7614	0,0114056	
15,7614	0,0114056	
15,7906	0,0251799	
15,7906	0,0251799	
15,8204	0,0286169	
15,8204	0,0286169	
15,8498	0,0502234	
15,8498	0,0502234	
15,8794	0,0523759	
15,8794	0,0523759	
15,909	0,0860125	
15,909	0,0860125	
15,939	0,107848	
15,939	0,107848	
15,9684	0,0748202	
15,9684	0,0748202	
15,9985	0,107501	
15,9985	0,107501	
16,0278	0,131317	
16,0278	0,131317	
16,0572	0,119302	
16,0572	0,119302	
16,0872	0,120855	
16,0872	0,120855	
16,1162	0,133238	
16,1162	0,133238	
16,146	0,130043	
16,146	0,130043	
16,1756	0,125521	
16,1756	0,125521	
16,2047	0,0961454	
16,2047	0,0961454	
16,2347	0,107789	
16,2347	0,107789	
16,264	0,124517	
16,264	0,124517	
16,2941	0,106524	
16,2941	0,106524	
16,3233	0,0547789	
16,3233	0,0547789	
16,3535	0,0630338	
16,3535	0,0630338	
16,383	0,0423432	
16,383	0,0423432	
16,412	0,0164228	
16,412	0,0164228	
16,4421	-0,00666808	
16,4421	-0,00666808	
16,4716	-0,0185696	
16,4716	-0,0185696	
16,5016	-0,0193754	
16,5016	-0,0193754	
16,5309	-0,0147166	
16,5309	-0,0147166	
16,5606	0,00160802	
16,5606	0,00160802	
16,5904	-0,011562	
16,5904	-0,011562	
16,6196	-0,00477091	
16,6196	-0,00477091	
16,6489	-0,0122236	
16,6489	-0,0122236	
16,6788	-0,00815243	
16,6788	-0,00815243	
16,7083	-0,043155	
16,7083	-0,043155	
16,7384	-0,00530406	
16,7384	-0,00530406	
16,7675	-0,0149086	
16,7675	-0,0149086	
16,7972	-0,0110937	
16,7972	-0,0110937	
16,8271	-0,00109785	
16,8271	-0,00109785	
16,8567	0,0106191	
16,8567	0,0106191	
16,8863	0,00814836	
16,8863	0,00814836	
16,9156	0,0304211	
16,9156	0,0304211	
16,9457	0,014571	
16,9457	0,014571	
16,975	0,0114924	
16,975	0,0114924	
17,0048	0,0431711	
17,0048	0,0431711	
17,0341	0,0376348	
17,0341	0,0376348	
17,0641	0,0149832	
17,0641	0,0149832	
17,0934	0,0426413	
17,0934	0,0426413	
17,1233	0,0277782	
17,1233	0,0277782	
17,1525	0,05107	
17,1525	0,05107	
17,182	0,0128173	
17,182	0,0128173	
17,2118	0,0396911	
17,2118	0,0396911	
17,2415	0,0569415	
17,2415	0,0569415	
17,2711	0,0355603	
17,2711	0,0355603	
17,3008	0,0569063	
17,3008	0,0569063	
17,3302	0,0208156	
17,3302	0,0208156	
17,36	0,0285269	
17,36	0,0285269	
17,3895	-0,000529158	
17,3895	-0,000529158	
17,4191	0,0127325	
17,4191	0,0127325	
17,4482	0,00689683	
17,4482	0,00689683	
17,4777	0,027922	
17,4777	0,027922	
17,5074	-0,00165481	
17,5074	-0,00165481	
17,5373	-0,0305498	
17,5373	-0,0305498	
17,5672	-0,0476821	
17,5672	-0,0476821	
17,5968	0,0149212	
17,5968	0,0149212	
17,6264	5,94299E-5	
17,6264	5,94299E-5	
17,6559	-0,00371079	
17,6559	-0,00371079	
17,6852	-0,0357981	
17,6852	-0,0357981	
17,7148	-0,00861776	
17,7148	-0,00861776	
17,7445	-0,00208427	
17,7445	-0,00208427	
17,7744	-0,00308145	
17,7744	-0,00308145	
17,8039	0,0257815	
17,8039	0,0257815	
17,8329	0,0232664	
17,8329	0,0232664	
17,8629	0,00327987	
17,8629	0,00327987	
17,8923	0,0411259	
17,8923	0,0411259	
17,9219	0,0397505	
17,9219	0,0397505	
17,9517	0,0399302	
17,9517	0,0399302	
17,9811	0,0943829	
17,9811	0,0943829	
18,0109	0,0714618	
18,0109	0,0714618	
18,0408	0,0926817	
18,0408	0,0926817	
18,0702	0,0899018	
18,0702	0,0899018	
18,0996	0,0849218	
18,0996	0,0849218	
18,1292	0,0936749	
18,1292	0,0936749	
18,159	0,10531	
18,159	0,10531	
18,1878	0,101139	
18,1878	0,101139	
18,2178	0,0953246	
18,2178	0,0953246	
18,248	0,077364	
18,248	0,077364	
18,2767	0,0975016	
18,2767	0,0975016	
18,3065	0,0726775	
18,3065	0,0726775	
18,336	0,0811656	
18,336	0,0811656	
18,3654	0,0490521	
18,3654	0,0490521	
18,3952	0,056378	
18,3952	0,056378	
18,4249	0,00442868	
18,4249	0,00442868	
18,4549	-0,000848724	
18,4549	-0,000848724	
18,4841	-0,00896994	
18,4841	-0,00896994	
18,5135	-0,0240649	
18,5135	-0,0240649	
18,5432	-0,020608	
18,5432	-0,020608	
18,5731	-0,00674406	
18,5731	-0,00674406	
18,6024	-0,0288257	
18,6024	-0,0288257	
18,6323	-0,0143334	
18,6323	-0,0143334	
18,662	-0,0107093	
18,662	-0,0107093	
18,6909	-0,00308177	
18,6909	-0,00308177	
18,7204	-0,0252388	
18,7204	-0,0252388	
18,7502	-0,0206719	
18,7502	-0,0206719	
18,7802	-0,0258737	
18,7802	-0,0258737	
18,8095	-0,0122103	
18,8095	-0,0122103	
18,839	-0,00204677	
18,839	-0,00204677	
18,8687	-0,0197429	
18,8687	-0,0197429	
18,898	-0,0159844	
18,898	-0,0159844	
18,9277	-0,011306	
18,9277	-0,011306	
18,9571	-0,0196434	
18,9571	-0,0196434	
18,9869	-0,00278601	
18,9869	-0,00278601	
19,0162	-0,00113535	
19,0162	-0,00113535	
19,046	-0,000500462	
19,046	-0,000500462	
19,0753	-0,0026634	
19,0753	-0,0026634	
19,1051	0,000528344	
19,1051	0,000528344	
19,1344	-0,0103193	
19,1344	-0,0103193	
19,1642	-0,0186075	
19,1642	-0,0186075	
19,194	-0,0354655	
19,194	-0,0354655	
19,2233	-0,0196493	
19,2233	-0,0196493	
19,2529	0,00232378	
19,2529	0,00232378	
19,2826	-0,0305276	
19,2826	-0,0305276	
19,3121	-0,0246981	
19,3121	-0,0246981	
19,3423	-0,0144704	
19,3423	-0,0144704	
19,3716	-0,00398438	
19,3716	-0,00398438	
19,4014	-0,00478656	
19,4014	-0,00478656	
19,4308	-0,00932765	
19,4308	-0,00932765	
19,4603	-0,048224	
19,4603	-0,048224	
19,4895	0,00227454	
19,4895	0,00227454	
19,5186	-0,00773406	
19,5186	-0,00773406	
19,5485	-0,00814819	
19,5485	-0,00814819	
19,5782	-0,0193672	
19,5782	-0,0193672	
19,6074	-0,0119044	
19,6074	-0,0119044	
19,6373	-0,0105912	
19,6373	-0,0105912	
19,6669	-0,0104083	
19,6669	-0,0104083	
19,6971	-0,0285453	
19,6971	-0,0285453	
19,7266	-0,0114003	
19,7266	-0,0114003	
19,7556	0,0250589	
19,7556	0,0250589	
19,7858	-0,0163601	
19,7858	-0,0163601	
19,8154	-0,0148248	
19,8154	-0,0148248	
19,845	0,0142335	
19,845	0,0142335	
19,8744	0,026738	
19,8744	0,026738	
19,9039	-0,0144583	
19,9039	-0,0144583	
19,9337	0,0194597	
19,9337	0,0194597	
19,9628	0,0146421	
19,9628	0,0146421	
19,9924	0,0184808	
19,9924	0,0184808	
20,0221	0,0148791	
20,0221	0,0148791	
20,0519	0,0338568	
20,0519	0,0338568	
20,0813	0,0292064	
20,0813	0,0292064	
20,1114	0,0278861	
20,1114	0,0278861	
20,1404	0,0415156	
20,1404	0,0415156	
20,1703	0,0375373	
20,1703	0,0375373	
20,2	0,0237383	
20,2	0,0237383	
20,2295	0,0245486	
20,2295	0,0245486	
20,2591	0,0478609	
20,2591	0,0478609	
20,2889	0,0145393	
20,2889	0,0145393	
20,3181	0,0191492	
20,3181	0,0191492	
20,348	0,0371375	
20,348	0,0371375	
20,3778	0,0208586	
20,3778	0,0208586	
20,4078	0,00835184	
20,4078	0,00835184	
20,4374	-0,00844004	
20,4374	-0,00844004	
20,4668	0,00299585	
20,4668	0,00299585	
20,497	-0,0177502	
20,497	-0,0177502	
20,5259	-0,017369	
20,5259	-0,017369	
20,5554	-0,00161764	
20,5554	-0,00161764	
20,5848	-0,0106656	
20,5848	-0,0106656	
20,615	-0,00844852	
20,615	-0,00844852	
20,644	-0,00524634	
20,644	-0,00524634	
20,6738	-0,00743504	
20,6738	-0,00743504	
20,7037	-0,0184098	
20,7037	-0,0184098	
20,7332	-0,0195798	
20,7332	-0,0195798	
20,7631	-0,00811396	
20,7631	-0,00811396	
20,792	-0,0228238	
20,792	-0,0228238	
20,8219	-0,014248	
20,8219	-0,014248	
20,8508	-0,0155859	
20,8508	-0,0155859	
20,8809	-0,0433096	
20,8809	-0,0433096	
20,9104	-0,00287242	
20,9104	-0,00287242	
20,9404	0,000653235	
20,9404	0,000653235	
20,9696	-0,00394884	
20,9696	-0,00394884	
20,9995	-0,00228318	
20,9995	-0,00228318	
21,029	-0,0342988	
21,029	-0,0342988	
21,0586	-0,00840939	
21,0586	-0,00840939	
21,0881	-0,00282351	
21,0881	-0,00282351	
21,1178	-0,0162714	
21,1178	-0,0162714	
21,147	-0,00327579	
21,147	-0,00327579	
21,1769	-0,0173517	
21,1769	-0,0173517	
21,2065	-0,0233207	
21,2065	-0,0233207	
21,2355	-0,0352389	
21,2355	-0,0352389	
21,2657	-0,00670004	
21,2657	-0,00670004	
21,2954	-0,00102155	
21,2954	-0,00102155	
21,325	-0,010706	
21,325	-0,010706	
21,3543	-0,0154989	
21,3543	-0,0154989	
21,3839	-0,0241924	
21,3839	-0,0241924	
21,4132	0,00070704	
21,4132	0,00070704	
21,4425	-0,031588	
21,4425	-0,031588	
21,473	-0,0109917	
21,473	-0,0109917	
21,502	-0,000670354	
21,502	-0,000670354	
21,5318	-0,0221912	
21,5318	-0,0221912	
21,5613	-0,00579482	
21,5613	-0,00579482	
21,5905	-0,0168009	
21,5905	-0,0168009	
21,6203	-0,0197475	
21,6203	-0,0197475	
21,65	-0,014098	
21,65	-0,014098	
21,6793	-0,0136219	
21,6793	-0,0136219	
21,7093	-0,0122236	
21,7093	-0,0122236	
21,7386	-0,00769298	
21,7386	-0,00769298	
21,7685	-0,00798287	
21,7685	-0,00798287	
21,7979	-0,0191791	
21,7979	-0,0191791	
21,8277	-0,0111769	
21,8277	-0,0111769	
21,8574	-0,0113947	
21,8574	-0,0113947	
21,8868	0,00186465	
21,8868	0,00186465	
21,9166	-0,0127291	
21,9166	-0,0127291	
21,9459	-0,0210251	
21,9459	-0,0210251	
21,9753	-0,00326569	
21,9753	-0,00326569	
22,0052	-0,01695	
22,0052	-0,01695	
22,0349	-0,0114156	
22,0349	-0,0114156	
22,0644	-0,00213416	
22,0644	-0,00213416	
22,0939	-0,00803863	
22,0939	-0,00803863	
22,1236	-0,0175744	
22,1236	-0,0175744	
22,1533	-0,0142066	
22,1533	-0,0142066	
22,1829	-0,0110253	
22,1829	-0,0110253	
22,2117	-0,0267737	
22,2117	-0,0267737	
22,2414	-0,0122233	
22,2414	-0,0122233	
22,2713	-0,008367	
22,2713	-0,008367	
22,3005	0,0224016	
22,3005	0,0224016	
22,3304	-0,036136	
22,3304	-0,036136	
22,3593	-0,0307607	
22,3593	-0,0307607	
22,3896	-0,000448615	
22,3896	-0,000448615	
22,4191	-0,0020246	
22,4191	-0,0020246	
22,4485	-0,0157138	
22,4485	-0,0157138	
22,478	-0,0072345	
22,478	-0,0072345	
22,5074	-0,00696287	
22,5074	-0,00696287	
22,5375	-0,0287419	
22,5375	-0,0287419	
22,567	0,00665227	
22,567	0,00665227	
22,5967	-0,0286565	
22,5967	-0,0286565	
22,6261	-0,0273668	
22,6261	-0,0273668	
22,6556	-0,0215462	
22,6556	-0,0215462	
22,6853	-0,0306489	
22,6853	-0,0306489	
22,7146	-0,00415003	
22,7146	-0,00415003	
22,7442	-0,00779341	
22,7442	-0,00779341	
22,774	-0,0131419	
22,774	-0,0131419	
22,8035	-0,0101794	
22,8035	-0,0101794	
22,8331	-0,00686047	
22,8331	-0,00686047	
22,8625	0,0134982	
22,8625	0,0134982	
22,8922	0,00904738	
22,8922	0,00904738	
22,9218	-0,0174365	
22,9218	-0,0174365	
22,9514	-0,0225626	
22,9514	-0,0225626	
22,9807	-0,0147061	
22,9807	-0,0147061	
23,0105	-0,0220121	
23,0105	-0,0220121	
23,0402	-0,00102318	
23,0402	-0,00102318	
23,0699	-0,0208868	
23,0699	-0,0208868	
23,0992	-0,00539602	
23,0992	-0,00539602	
23,1294	-0,0265666	
23,1294	-0,0265666	
23,1588	-0,000944594	
23,1588	-0,000944594	
23,1887	-0,0111929	
23,1887	-0,0111929	
23,218	-0,00474156	
23,218	-0,00474156	
23,2475	-0,027449	
23,2475	-0,027449	
23,2768	-0,00377079	
23,2768	-0,00377079	
23,3072	-0,0200103	
23,3072	-0,0200103	
23,3364	-0,023565	
23,3364	-0,023565	
23,3659	0,00512455	
23,3659	0,00512455	
23,3959	0,00125911	
23,3959	0,00125911	
23,4252	-0,0260188	
23,4252	-0,0260188	
23,4545	-0,0113086	
23,4545	-0,0113086	
23,4842	-0,00531938	
23,4842	-0,00531938	
23,5145	-0,008907	
23,5145	-0,008907	
23,5439	-0,0208503	
23,5439	-0,0208503	
23,5732	-0,021506	
23,5732	-0,021506	
23,6027	0,00132726	
23,6027	0,00132726	
23,6324	-0,022992	
23,6324	-0,022992	
23,6617	-0,0160252	
23,6617	-0,0160252	
23,6909	-0,00597906	
23,6909	-0,00597906	
23,7208	-0,0149631	
23,7208	-0,0149631	
23,7502	-0,0195955	
23,7502	-0,0195955	
23,7801	-0,0320745	
23,7801	-0,0320745	
23,8096	-0,0258988	
23,8096	-0,0258988	
23,8392	-0,00732808	
23,8392	-0,00732808	
23,8685	0,0165122	
23,8685	0,0165122	
23,8981	0,00374096	
23,8981	0,00374096	
23,9269	-0,0244999	
23,9269	-0,0244999	
23,9573	-0,0060358	
23,9573	-0,0060358	
23,9869	-0,0187072	
23,9869	-0,0187072	
24,0166	0,00297335	
24,0166	0,00297335	
24,0468	-0,0105114	
24,0468	-0,0105114	
24,076	-0,0245478	
24,076	-0,0245478	
24,1054	-0,00055231	
24,1054	-0,00055231	
24,1346	-0,0223072	
24,1346	-0,0223072	
24,1642	0,00854325	
24,1642	0,00854325	
24,1938	-0,0117867	
24,1938	-0,0117867	
24,2231	-0,0126019	
24,2231	-0,0126019	
24,2529	-0,0379917	
24,2529	-0,0379917	
24,2829	-0,000874811	
24,2829	-0,000874811	
24,3125	-0,0145669	
24,3125	-0,0145669	
24,3424	0,00231335	
24,3424	0,00231335	
24,3719	-0,0262148	
24,3719	-0,0262148	
24,4011	-0,0107272	
24,4011	-0,0107272	
24,4304	-0,0246926	
24,4304	-0,0246926	
24,4601	-0,00536112	
24,4601	-0,00536112	
24,4899	-0,0138544	
24,4899	-0,0138544	
24,5188	-0,0160868	
24,5188	-0,0160868	
24,5487	-0,0109858	
24,5487	-0,0109858	
24,5782	-0,0248253	
24,5782	-0,0248253	
24,6078	-0,00753906	
24,6078	-0,00753906	
24,6377	-0,0110924	
24,6377	-0,0110924	
24,6674	-0,018356	
24,6674	-0,018356	
24,6968	-0,0168306	
24,6968	-0,0168306	
24,7265	-0,00151753	
24,7265	-0,00151753	
24,7555	-0,0294544	
24,7555	-0,0294544	
24,7851	-0,0252495	
24,7851	-0,0252495	
24,815	-0,00800015	
24,815	-0,00800015	
24,8444	-0,0150182	
24,8444	-0,0150182	
24,8743	-0,0206775	
24,8743	-0,0206775	
24,9039	-0,0207573	
24,9039	-0,0207573	
24,9332	0,0063239	
24,9332	0,0063239	
24,9627	-0,0254494	
24,9627	-0,0254494	
24,9918	-4,49181E-5	
24,9918	-4,49181E-5	
25,0217	0,0077564	
25,0217	0,0077564	
25,0512	-0,0156883	
25,0512	-0,0156883	
25,0809	0,00495107	
25,0809	0,00495107	
25,1106	-0,00350862	
25,1106	-0,00350862	
25,1404	-0,0131774	
25,1404	-0,0131774	
25,17	-0,0226744	
25,17	-0,0226744	
25,1999	-0,00733558	
25,1999	-0,00733558	
25,2289	-0,00220916	
25,2289	-0,00220916	
25,2583	0,00628509	
25,2583	0,00628509	
25,2884	-0,0173413	
25,2884	-0,0173413	
25,3179	-0,0147648	
25,3179	-0,0147648	
25,3473	-0,0383279	
25,3473	-0,0383279	
25,3772	0,0130821	
25,3772	0,0130821	
25,4066	-0,0171736	
25,4066	-0,0171736	
25,4359	0,000643453	
25,4359	0,000643453	
25,4657	0,00743781	
25,4657	0,00743781	
25,4954	-0,00159481	
25,4954	-0,00159481	
25,5249	-0,0433493	
25,5249	-0,0433493	
25,5544	0,0163817	
25,5544	0,0163817	
25,5839	-0,0149305	
25,5839	-0,0149305	
25,6136	-0,0238461	
25,6136	-0,0238461	
25,6429	-0,0177551	
25,6429	-0,0177551	
25,673	-0,0068383	
25,673	-0,0068383	
25,7025	-0,0225062	
25,7025	-0,0225062	
25,732	-0,0210841	
25,732	-0,0210841	
25,7615	-0,0262829	
25,7615	-0,0262829	
25,7906	-0,0192694	
25,7906	-0,0192694	
25,82	-0,0195564	
25,82	-0,0195564	
25,8501	-0,00514036	
25,8501	-0,00514036	
25,8794	0,00466476	
25,8794	0,00466476	
25,9091	-0,00963483	
25,9091	-0,00963483	
25,9382	0,0158812	
25,9382	0,0158812	
25,9684	-0,0174169	
25,9684	-0,0174169	
25,9984	0,000441278	
25,9984	0,000441278	
26,0274	0,0199658	
26,0274	0,0199658	
26,0573	0,0113137	
26,0573	0,0113137	
26,0868	0,0168601	
26,0868	0,0168601	
26,1168	0,0242708	
26,1168	0,0242708	
26,1454	0,0123934	
26,1454	0,0123934	
26,175	0,0249125	
26,175	0,0249125	
26,2049	0,0282031	
26,2049	0,0282031	
26,2344	0,00350161	
26,2344	0,00350161	
26,2637	0,0335062	
26,2637	0,0335062	
26,2943	0,0161189	
26,2943	0,0161189	
26,3234	0,0159644	
26,3234	0,0159644	
26,3532	0,019957	
26,3532	0,019957	
26,3828	0,0396077	
26,3828	0,0396077	
26,4123	0,00787281	
26,4123	0,00787281	
26,442	0,0336344	
26,442	0,0336344	
26,4715	0,0206701	
26,4715	0,0206701	
26,501	-0,0030309	
26,501	-0,0030309	
26,5304	0,0190348	
26,5304	0,0190348	
26,5604	0,00490085	
26,5604	0,00490085	
26,59	-0,0134051	
26,59	-0,0134051	
26,6199	-0,0331382	
26,6199	-0,0331382	
26,6487	-0,0038246	
26,6487	-0,0038246	
26,6785	0,00180465	
26,6785	0,00180465	
26,7078	-0,025722	
26,7078	-0,025722	
26,7377	0,00203324	
26,7377	0,00203324	
26,7673	-0,00923211	
26,7673	-0,00923211	
26,7968	-0,00181362	
26,7968	-0,00181362	
26,8266	-0,0346239	
26,8266	-0,0346239	
26,8559	0,0290969	
26,8559	0,0290969	
26,8855	0,00242976	
26,8855	0,00242976	
26,9151	0,00963564	
26,9151	0,00963564	
26,9452	0,00993956	
26,9452	0,00993956	
26,9743	0,025145	
26,9743	0,025145	
27,0041	0,0314382	
27,0041	0,0314382	
27,0344	0,0468885	
27,0344	0,0468885	
27,0637	0,0470196	
27,0637	0,0470196	
27,0937	0,0384879	
27,0937	0,0384879	
27,1232	0,0399321	
27,1232	0,0399321	
27,1528	0,0862812	
27,1528	0,0862812	
27,1823	0,0579357	
27,1823	0,0579357	
27,2117	0,0861452	
27,2117	0,0861452	
27,2408	0,10001	
27,2408	0,10001	
27,2708	0,101845	
27,2708	0,101845	
27,3001	0,093746	
27,3001	0,093746	
27,3296	0,0876247	
27,3296	0,0876247	
27,3595	0,0849645	
27,3595	0,0849645	
27,3886	0,0974641	
27,3886	0,0974641	
27,4189	0,0949441	
27,4189	0,0949441	
27,4479	0,091754	
27,4479	0,091754	
27,477	0,0937473	
27,477	0,0937473	
27,5068	0,116174	
27,5068	0,116174	
27,5367	0,0792521	
27,5367	0,0792521	
27,5661	0,082363	
27,5661	0,082363	
27,5962	0,0820943	
27,5962	0,0820943	
27,6253	0,100939	
27,6253	0,100939	
27,6552	0,108882	
27,6552	0,108882	
27,6843	0,127583	
27,6843	0,127583	
27,7149	0,159004	
27,7149	0,159004	
27,7435	0,211663	
27,7435	0,211663	
27,7734	0,282538	
27,7734	0,282538	
27,803	0,372867	
27,803	0,372867	
27,8323	0,509191	
27,8323	0,509191	
27,8617	0,667388	
27,8617	0,667388	
27,8911	0,885053	
27,8911	0,885053	
27,9212	1,08985	
27,9212	1,08985	
27,951	1,32776	
27,951	1,32776	
27,9805	1,65888	
27,9805	1,65888	
28,0097	2,05233	
28,0097	2,05233	
28,039	2,48005	
28,039	2,48005	
28,0686	2,93579	
28,0686	2,93579	
28,0982	3,38428	
28,0982	3,38428	
28,1279	3,74728	
28,1279	3,74728	
28,1568	4,09356	
28,1568	4,09356	
28,187	4,31093	
28,187	4,31093	
28,2161	4,54545	
28,2161	4,54545	
28,246	4,73943	
28,246	4,73943	
28,2757	4,79378	
28,2757	4,79378	
28,3051	4,83764	
28,3051	4,83764	
28,3344	4,72404	
28,3344	4,72404	
28,3639	4,70096	
28,3639	4,70096	
28,394	4,56992	
28,394	4,56992	
28,4238	4,3556	
28,4238	4,3556	
28,453	4,12914	
28,453	4,12914	
28,4827	3,81951	
28,4827	3,81951	
28,5124	3,33167	
28,5124	3,33167	
28,5419	2,70045	
28,5419	2,70045	
28,5718	2,0081	
28,5718	2,0081	
28,6011	1,2409	
28,6011	1,2409	
28,6309	0,399216	
28,6309	0,399216	
28,6607	-0,0597835	
28,6607	-0,0597835	
28,6897	-0,115558	
28,6897	-0,115558	
28,7195	-0,11414	
28,7195	-0,11414	
28,7487	-0,0931716	
28,7487	-0,0931716	
28,7786	-0,103389	
28,7786	-0,103389	
28,8083	-0,0843154	
28,8083	-0,0843154	
28,8379	-0,0882053	
28,8379	-0,0882053	
28,8673	-0,0941039	
28,8673	-0,0941039	
28,8967	-0,0776345	
28,8967	-0,0776345	
28,9262	-0,0760687	
28,9262	-0,0760687	
28,956	-0,0713893	
28,956	-0,0713893	
28,9853	-0,0374459	
28,9853	-0,0374459	
29,0151	-0,0463533	
29,0151	-0,0463533	
29,0447	-0,0537176	
29,0447	-0,0537176	
29,074	-0,0289643	
29,074	-0,0289643	
29,1036	-0,029577	
29,1036	-0,029577	
29,1328	-0,0255401	
29,1328	-0,0255401	
29,1626	-0,0171867	
29,1626	-0,0171867	
29,1924	-0,0341661	
29,1924	-0,0341661	
29,2216	-0,00660841	
29,2216	-0,00660841	
29,2519	-0,0113161	
29,2519	-0,0113161	
29,2812	-0,0382334	
29,2812	-0,0382334	
29,3109	-0,00450025	
29,3109	-0,00450025	
29,3402	-0,0129674	
29,3402	-0,0129674	
29,3704	0,00455357	
29,3704	0,00455357	
29,399	-0,00961396	
29,399	-0,00961396	
29,4292	-0,00301786	
29,4292	-0,00301786	
29,4585	-0,0103604	
29,4585	-0,0103604	
29,4878	0,00112345	
29,4878	0,00112345	
29,5176	-0,0141117	
29,5176	-0,0141117	
29,5468	-0,056431	
29,5468	-0,056431	
29,5766	-0,0054208	
29,5766	-0,0054208	
29,6061	-0,0335227	
29,6061	-0,0335227	
29,636	-0,0393323	
29,636	-0,0393323	
29,6652	-0,0135071	
29,6652	-0,0135071	
29,6952	-0,0375949	
29,6952	-0,0375949	
29,7247	-0,0305175	
29,7247	-0,0305175	
29,7542	-0,00989374	
29,7542	-0,00989374	
29,7836	-0,0294173	
29,7836	-0,0294173	
29,8132	-0,0483215	
29,8132	-0,0483215	
29,8428	-0,0298236	
29,8428	-0,0298236	
29,8724	-0,043621	
29,8724	-0,043621	
29,9022	-0,0154672	
29,9022	-0,0154672	
29,9317	-0,0248778	
29,9317	-0,0248778	
29,9611	-0,00730069	
29,9611	-0,00730069	
29,9904	-0,014429	
29,9904	-0,014429	
30,0201	-0,0438121	
30,0201	-0,0438121	
30,0498	-0,0390531	
30,0498	-0,0390531	
30,0792	-0,00825189	
30,0792	-0,00825189	
30,1089	-0,000520028	
30,1089	-0,000520028	
30,1386	-0,00629928	
30,1386	-0,00629928	
30,1679	-0,0132273	
30,1679	-0,0132273	
30,1979	0,0166302	
30,1979	0,0166302	
30,2275	-0,00318905	
30,2275	-0,00318905	
30,2571	-0,0198192	
30,2571	-0,0198192	
30,2865	-0,00452667	
30,2865	-0,00452667	
30,316	0,0255833	
30,316	0,0255833	
30,3459	0,000482692	
30,3459	0,000482692	
30,3757	0,0106371	
30,3757	0,0106371	
30,4051	-0,00862591	
30,4051	-0,00862591	
30,4348	0,0216119	
30,4348	0,0216119	
30,4643	0,0126154	
30,4643	0,0126154	
30,4938	0,0161649	
30,4938	0,0161649	
30,5236	-0,00514069	
30,5236	-0,00514069	
30,5529	0,0131251	
30,5529	0,0131251	
30,5816	-0,024465	
30,5816	-0,024465	
30,6115	0,00599781	
30,6115	0,00599781	
30,6414	-0,0169663	
30,6414	-0,0169663	
30,671	-0,0415895	
30,671	-0,0415895	
30,7006	-0,0219365	
30,7006	-0,0219365	
30,7299	-0,0278005	
30,7299	-0,0278005	
30,7596	-0,0117697	
30,7596	-0,0117697	
30,7892	-0,0702721	
30,7892	-0,0702721	
30,8181	-0,0228626	
30,8181	-0,0228626	
30,8481	-0,0281478	
30,8481	-0,0281478	
30,8775	-0,0317172	
30,8775	-0,0317172	
30,9074	-0,0323357	
30,9074	-0,0323357	
30,9368	-0,0214128	
30,9368	-0,0214128	
30,9666	-0,0123586	
30,9666	-0,0123586	
30,9963	-0,0145705	
30,9963	-0,0145705	
31,0261	-0,00552939	
31,0261	-0,00552939	
31,0552	-0,036676	
31,0552	-0,036676	
31,0856	0,00240433	
31,0856	0,00240433	
31,1145	-0,0178852	
31,1145	-0,0178852	
31,1444	-0,034831	
31,1444	-0,034831	
31,1736	-0,00602308	
31,1736	-0,00602308	
31,2032	0,0150539	
31,2032	0,0150539	
31,2326	-0,00184264	
31,2326	-0,00184264	
31,2622	-0,0172125	
31,2622	-0,0172125	
31,2918	0,000472909	
31,2918	0,000472909	
31,3218	-0,0272739	
31,3218	-0,0272739	
31,3511	0,0086476	
31,3511	0,0086476	
31,3804	-0,0153854	
31,3804	-0,0153854	
31,4098	0,0116189	
31,4098	0,0116189	
31,4395	-0,0315841	
31,4395	-0,0315841	
31,4695	0,0149835	
31,4695	0,0149835	
31,4984	-0,000279701	
31,4984	-0,000279701	
31,528	0,00123954	
31,528	0,00123954	
31,558	-0,0123133	
31,558	-0,0123133	
31,5876	-0,0152996	
31,5876	-0,0152996	
31,617	-0,0213006	
31,617	-0,0213006	
31,6466	-0,00575765	
31,6466	-0,00575765	
31,6756	-0,0280614	
31,6756	-0,0280614	
31,7056	-0,0104889	
31,7056	-0,0104889	
31,7351	-0,00655493	
31,7351	-0,00655493	
31,7649	-0,00458145	
31,7649	-0,00458145	
31,7943	0,0094713	
31,7943	0,0094713	
31,8239	0,021847	
31,8239	0,021847	
31,8535	0,0254176	
31,8535	0,0254176	
31,8837	0,037179	
31,8837	0,037179	
31,9124	0,0488209	
31,9124	0,0488209	
31,9422	0,0737389	
31,9422	0,0737389	
31,972	0,120887	
31,972	0,120887	
32,0014	0,156885	
32,0014	0,156885	
32,0309	0,152381	
32,0309	0,152381	
32,0601	0,189355	
32,0601	0,189355	
32,0898	0,266769	
32,0898	0,266769	
32,1195	0,281082	
32,1195	0,281082	
32,1499	0,355756	
32,1499	0,355756	
32,1789	0,389744	
32,1789	0,389744	
32,2083	0,467115	
32,2083	0,467115	
32,2375	0,522807	
32,2375	0,522807	
32,2673	0,516082	
32,2673	0,516082	
32,2965	0,522997	
32,2965	0,522997	
32,3265	0,533319	
32,3265	0,533319	
32,356	0,550428	
32,356	0,550428	
32,3851	0,556704	
32,3851	0,556704	
32,4153	0,535198	
32,4153	0,535198	
32,4442	0,502003	
32,4442	0,502003	
32,4738	0,474739	
32,4738	0,474739	
32,5037	0,48495	
32,5037	0,48495	
32,5328	0,45267	
32,5328	0,45267	
32,5626	0,398309	
32,5626	0,398309	
32,592	0,324314	
32,592	0,324314	
32,6213	0,237271	
32,6213	0,237271	
32,6509	0,151851	
32,6509	0,151851	
32,6806	0,0825045	
32,6806	0,0825045	
32,7102	-0,0268767	
32,7102	-0,0268767	
32,7399	-0,0233784	
32,7399	-0,0233784	
32,7691	-0,0265871	
32,7691	-0,0265871	
32,7989	-0,024089	
32,7989	-0,024089	
32,8284	-0,011624	
32,8284	-0,011624	
32,858	-0,0388425	
32,858	-0,0388425	
32,8871	-0,0401123	
32,8871	-0,0401123	
32,9171	-0,03612	
32,9171	-0,03612	
32,9464	-0,0505468	
32,9464	-0,0505468	
32,976	-0,0412327	
32,976	-0,0412327	
33,006	-0,0288414	
33,006	-0,0288414	
33,0356	0,00833716	
33,0356	0,00833716	
33,0653	-0,032835	
33,0653	-0,032835	
33,0948	-0,0271819	
33,0948	-0,0271819	
33,1242	-0,0429998	
33,1242	-0,0429998	
33,1536	-5,33964E-5	
33,1536	-5,33964E-5	
33,1837	-0,012614	
33,1837	-0,012614	
33,2129	-0,0322911	
33,2129	-0,0322911	
33,2431	-0,0105039	
33,2431	-0,0105039	
33,2723	-0,0205193	
33,2723	-0,0205193	
33,3015	-0,0357724	
33,3015	-0,0357724	
33,3314	0,013927	
33,3314	0,013927	
33,3609	-0,00894874	
33,3609	-0,00894874	
33,3906	-0,014203	
33,3906	-0,014203	
33,4198	-0,0153156	
33,4198	-0,0153156	
33,4494	-0,00274949	
33,4494	-0,00274949	
33,479	-0,0144299	
33,479	-0,0144299	
33,5086	-0,047987	
33,5086	-0,047987	
33,538	-0,0193337	
33,538	-0,0193337	
33,5677	-0,0159668	
33,5677	-0,0159668	
33,5978	-0,0329491	
33,5978	-0,0329491	
33,6269	-0,0247161	
33,6269	-0,0247161	
33,6569	-0,00892167	
33,6569	-0,00892167	
33,6862	0,00488683	
33,6862	0,00488683	
33,7162	0,00838771	
33,7162	0,00838771	
33,7461	-0,0199588	
33,7461	-0,0199588	
33,7758	-0,0156798	
33,7758	-0,0156798	
33,8048	-0,0584227	
33,8048	-0,0584227	
33,8346	-0,0150283	
33,8346	-0,0150283	
33,8644	-0,0122302	
33,8644	-0,0122302	
33,8938	-0,0294042	
33,8938	-0,0294042	
33,9228	-0,0205689	
33,9228	-0,0205689	
33,9529	-0,00518308	
33,9529	-0,00518308	
33,9824	0,00154802	
33,9824	0,00154802	
34,0121	-0,0260031	
34,0121	-0,0260031	
34,0419	-0,0146494	
34,0419	-0,0146494	
34,0714	-0,019631	
34,0714	-0,019631	
34,1007	-0,0185494	
34,1007	-0,0185494	
34,1302	-0,0200817	
34,1302	-0,0200817	
34,1596	-0,0118036	
34,1596	-0,0118036	
34,1893	-0,0147893	
34,1893	-0,0147893	
34,2187	-0,0170716	
34,2187	-0,0170716	
34,2486	-0,0222662	
34,2486	-0,0222662	
34,278	-0,0329494	
34,278	-0,0329494	
34,3076	-0,0103852	
34,3076	-0,0103852	
34,337	-0,00944733	
34,337	-0,00944733	
34,3666	-0,0142927	
34,3666	-0,0142927	
34,3962	-0,00340395	
34,3962	-0,00340395	
34,4256	-0,0225929	
34,4256	-0,0225929	
34,4555	-0,0172754	
34,4555	-0,0172754	
34,485	-0,0111352	
34,485	-0,0111352	
34,5141	-0,0285486	
34,5141	-0,0285486	
34,5438	-0,0261225	
34,5438	-0,0261225	
34,5734	-0,017265	
34,5734	-0,017265	
34,6034	0,0104499	
34,6034	0,0104499	
34,6329	0,00334085	
34,6329	0,00334085	
34,6624	-0,00692178	
34,6624	-0,00692178	
34,692	-0,00810939	
34,692	-0,00810939	
34,7214	-0,0284302	
34,7214	-0,0284302	
34,7508	-0,00945678	
34,7508	-0,00945678	
34,7803	-0,0299028	
34,7803	-0,0299028	
34,8098	-0,021809	
34,8098	-0,021809	
34,839	-0,0261215	
34,839	-0,0261215	
34,869	-0,0102736	
34,869	-0,0102736	
34,899	-0,0348959	
34,899	-0,0348959	
34,9283	-0,0350279	
34,9283	-0,0350279	
34,9577	-0,0051896	
34,9577	-0,0051896	
34,987	0,00055867	
34,987	0,00055867	
35,0165	-0,0225166	
35,0165	-0,0225166	
35,0464	-0,023113	
35,0464	-0,023113	
35,0759	-0,0382144	
35,0759	-0,0382144	
35,1055	-0,041102	
35,1055	-0,041102	
35,1351	-0,015071	
35,1351	-0,015071	
35,1645	0,000964323	
35,1645	0,000964323	
35,1942	-0,0141221	
35,1942	-0,0141221	
35,224	-0,0210381	
35,224	-0,0210381	
35,2531	-0,0154124	
35,2531	-0,0154124	
35,2829	-0,00410014	
35,2829	-0,00410014	
35,3126	-0,0188113	
35,3126	-0,0188113	
35,3417	-0,0191993	
35,3417	-0,0191993	
35,3716	-0,028498	
35,3716	-0,028498	
35,4006	-0,0228574	
35,4006	-0,0228574	
35,4307	-0,0142591	
35,4307	-0,0142591	
35,4601	-0,0251175	
35,4601	-0,0251175	
35,4898	-0,010375	
35,4898	-0,010375	
35,5196	0,0166152	
35,5196	0,0166152	
35,5486	-0,017726	
35,5486	-0,017726	
35,5778	-0,0343294	
35,5778	-0,0343294	
35,6074	-0,0238278	
35,6074	-0,0238278	
35,6374	-0,00606971	
35,6374	-0,00606971	
35,6672	-0,0245556	
35,6672	-0,0245556	
35,6965	0,000576605	
35,6965	0,000576605	
35,7259	-0,00841004	
35,7259	-0,00841004	
35,7557	-0,0150961	
35,7557	-0,0150961	
35,7854	-0,0233794	
35,7854	-0,0233794	
35,8147	-0,0137944	
35,8147	-0,0137944	
35,844	-0,0131941	
35,844	-0,0131941	
35,8732	-0,0117961	
35,8732	-0,0117961	
35,903	-0,0137201	
35,903	-0,0137201	
35,9325	-0,0299387	
35,9325	-0,0299387	
35,9625	-0,0232659	
35,9625	-0,0232659	
35,9919	-0,0187147	
35,9919	-0,0187147	
36,022	0,0153604	
36,022	0,0153604	
36,0513	-0,010589	
36,0513	-0,010589	
36,0809	-0,023518	
36,0809	-0,023518	
36,1105	-0,0203967	
36,1105	-0,0203967	
36,14	-0,0251618	
36,14	-0,0251618	
36,1699	-0,0261521	
36,1699	-0,0261521	
36,1987	-0,0106424	
36,1987	-0,0106424	
36,2286	-0,0229933	
36,2286	-0,0229933	
36,2572	-0,00900874	
36,2572	-0,00900874	
36,2876	-0,00960744	
36,2876	-0,00960744	
36,3177	-0,0137543	
36,3177	-0,0137543	
36,3468	-0,0183453	
36,3468	-0,0183453	
36,3765	-0,0140057	
36,3765	-0,0140057	
36,4062	-0,0118669	
36,4062	-0,0118669	
36,4357	-0,00414677	
36,4357	-0,00414677	
36,4652	0,000926823	
36,4652	0,000926823	
36,4946	-0,0262783	
36,4946	-0,0262783	
36,5248	-0,0177551	
36,5248	-0,0177551	
36,554	-0,0230188	
36,554	-0,0230188	
36,5839	-0,0055721	
36,5839	-0,0055721	
36,613	-0,0340653	
36,613	-0,0340653	
36,6425	0,00501596	
36,6425	0,00501596	
36,672	-0,0165528	
36,672	-0,0165528	
36,7018	-0,0229487	
36,7018	-0,0229487	
36,7315	-0,0422739	
36,7315	-0,0422739	
36,7616	-0,00603286	
36,7616	-0,00603286	
36,7909	-0,00197731	
36,7909	-0,00197731	
36,8197	-0,0248537	
36,8197	-0,0248537	
36,8499	-0,0386553	
36,8499	-0,0386553	
36,8794	-0,00412884	
36,8794	-0,00412884	
36,9091	-0,0203996	
36,9091	-0,0203996	
36,9385	-0,0201697	
36,9385	-0,0201697	
36,9679	-0,0239784	
36,9679	-0,0239784	
36,9978	0,00338291	
36,9978	0,00338291	
37,0265	0,00526966	
37,0265	0,00526966	
37,0566	-0,00261351	
37,0566	-0,00261351	
37,0861	-0,019469	
37,0861	-0,019469	
37,1159	-0,0377517	
37,1159	-0,0377517	
37,146	-0,00669547	
37,146	-0,00669547	
37,175	-0,0127708	
37,175	-0,0127708	
37,2045	-0,0239025	
37,2045	-0,0239025	
37,2342	-0,0106274	
37,2342	-0,0106274	
37,2635	-0,0214669	
37,2635	-0,0214669	
37,293	-8,96265E-7	
37,293	-8,96265E-7	
37,3228	0,00397052	
37,3228	0,00397052	
37,352	-0,00172786	
37,352	-0,00172786	
37,3814	-0,0141515	
37,3814	-0,0141515	
37,4113	-0,0129358	
37,4113	-0,0129358	
37,4409	-0,0364513	
37,4409	-0,0364513	
37,4707	0,0102151	
37,4707	0,0102151	
37,4995	-0,025199	
37,4995	-0,025199	
37,5291	-0,0151757	
37,5291	-0,0151757	
37,5592	-0,0134937	
37,5592	-0,0134937	
37,5887	-0,0145343	
37,5887	-0,0145343	
37,6176	-0,0352229	
37,6176	-0,0352229	
37,6476	-0,00306677	
37,6476	-0,00306677	
37,6771	-0,0250653	
37,6771	-0,0250653	
37,7067	-0,00105481	
37,7067	-0,00105481	
37,7362	-0,0319236	
37,7362	-0,0319236	
37,7662	0,0123001	
37,7662	0,0123001	
37,7951	-0,0166359	
37,7951	-0,0166359	
37,825	-0,0338328	
37,825	-0,0338328	
37,8547	-0,010662	
37,8547	-0,010662	
37,8836	-0,0134132	
37,8836	-0,0134132	
37,9134	0,0142397	
37,9134	0,0142397	
37,9432	0,000789866	
37,9432	0,000789866	
37,9728	-0,0453375	
37,9728	-0,0453375	
38,0026	-0,04953	
38,0026	-0,04953	
38,0321	-0,0143145	
38,0321	-0,0143145	
38,0608	-0,00645743	
38,0608	-0,00645743	
38,0905	-0,0214294	
38,0905	-0,0214294	
38,1205	-0,0226177	
38,1205	-0,0226177	
38,1503	-0,0154395	
38,1503	-0,0154395	
38,1795	0,000106387	
38,1795	0,000106387	
38,2089	0,00201302	
38,2089	0,00201302	
38,2387	-0,022781	
38,2387	-0,022781	
38,2678	-0,00345351	
38,2678	-0,00345351	
38,2978	-0,00794765	
38,2978	-0,00794765	
38,3271	-0,00605341	
38,3271	-0,00605341	
38,3565	-0,0216541	
38,3565	-0,0216541	
38,386	-0,0391526	
38,386	-0,0391526	
38,4158	-0,00455014	
38,4158	-0,00455014	
38,4454	-0,0219062	
38,4454	-0,0219062	
38,4748	-0,0103917	
38,4748	-0,0103917	
38,5047	-0,0197556	
38,5047	-0,0197556	
38,5344	-0,0097682	
38,5344	-0,0097682	
38,5638	-0,0112734	
38,5638	-0,0112734	
38,5933	-0,0166252	
38,5933	-0,0166252	
38,6235	-0,0137031	
38,6235	-0,0137031	
38,6525	-0,0189114	
38,6525	-0,0189114	
38,6821	-0,0136242	
38,6821	-0,0136242	
38,7114	-0,0213218	
38,7114	-0,0213218	
38,7408	0,000116495	
38,7408	0,000116495	
38,771	-0,0190265	
38,771	-0,0190265	
38,8005	-0,0250213	
38,8005	-0,0250213	
38,8298	-0,0177446	
38,8298	-0,0177446	
38,8596	-0,0062171	
38,8596	-0,0062171	
38,889	-0,0446876	
38,889	-0,0446876	
38,9182	0,0317323	
38,9182	0,0317323	
38,9476	-0,0187783	
38,9476	-0,0187783	
38,9772	-0,0283386	
38,9772	-0,0283386	
39,0071	-0,00237351	
39,0071	-0,00237351	
39,0367	-0,0018234	
39,0367	-0,0018234	
39,0659	-0,0026621	
39,0659	-0,0026621	
39,0955	-0,023291	
39,0955	-0,023291	
39,1252	-0,013991	
39,1252	-0,013991	
39,1547	-0,0153802	
39,1547	-0,0153802	
39,184	-0,015448	
39,184	-0,015448	
39,2135	-0,0158015	
39,2135	-0,0158015	
39,2428	-0,0294342	
39,2428	-0,0294342	
39,2722	-0,000319158	
39,2722	-0,000319158	
39,3016	-0,00487199	
39,3016	-0,00487199	
39,3315	-0,0447055	
39,3315	-0,0447055	
39,3611	0,0428281	
39,3611	0,0428281	
39,3904	-0,0187415	
39,3904	-0,0187415	
39,4201	-0,0128765	
39,4201	-0,0128765	
39,4503	-0,0244989	
39,4503	-0,0244989	
39,4795	0,0096976	
39,4795	0,0096976	
39,5086	-0,0160597	
39,5086	-0,0160597	
39,5381	-0,0229979	
39,5381	-0,0229979	
39,5671	-0,0147198	
39,5671	-0,0147198	
39,5973	-0,0289024	
39,5973	-0,0289024	
39,6273	-0,0206354	
39,6273	-0,0206354	
39,6565	0,00189824	
39,6565	0,00189824	
39,6861	-0,0229301	
39,6861	-0,0229301	
39,7159	-0,0298229	
39,7159	-0,0298229	
39,7456	-0,0171463	
39,7456	-0,0171463	
39,7751	0,00597498	
39,7751	0,00597498	
39,8043	-0,00624547	
39,8043	-0,00624547	
39,8343	-0,00157655	
39,8343	-0,00157655	
39,8637	-0,0148033	
39,8637	-0,0148033	
39,893	-0,0132032	
39,893	-0,0132032	
39,923	-0,0372189	
39,923	-0,0372189	
39,9527	0,0168683	
39,9527	0,0168683	
39,9821	0,00664151	
39,9821	0,00664151	
40,0115	-0,0215631	
